Wavelength	Flux	BestFit	SkyFlux
3791.403	-0.771	6.613	0.000
3792.277	-0.771	6.822	35.797
3793.150	4.371	6.894	33.323
3794.023	9.511	6.931	31.396
3794.897	5.313	6.846	32.301
3795.771	6.758	6.749	31.663
3796.645	8.292	6.633	31.383
3797.519	3.620	6.482	31.300
3798.394	-0.118	6.335	31.709
3799.269	3.613	6.243	32.323
3800.144	1.452	6.189	33.011
3801.019	6.187	6.163	33.933
3801.894	6.240	6.109	35.021
3802.769	8.042	6.144	36.176
3803.645	11.533	6.370	37.348
3804.521	10.685	6.590	38.305
3805.397	6.416	6.847	39.173
3806.274	4.875	6.996	40.038
3807.150	2.717	7.092	40.930
3808.027	-7.016	7.174	41.475
3808.904	3.190	7.180	41.645
3809.781	3.188	7.050	41.699
3810.658	2.969	6.936	41.477
3811.536	7.604	6.872	40.922
3812.414	11.746	6.858	39.845
3813.291	9.745	6.886	37.755
3814.170	5.954	6.916	35.000
3815.048	10.291	6.898	31.756
3815.926	6.202	6.925	27.904
3816.805	-2.526	6.911	28.024
3817.684	4.631	6.847	30.012
3818.563	5.955	6.828	32.787
3819.443	8.408	6.852	31.245
3820.322	10.479	6.736	27.390
3821.202	8.745	6.783	24.837
3822.082	7.740	6.751	25.763
3822.962	7.545	6.755	28.821
3823.843	5.759	6.882	30.233
3824.723	8.809	7.024	28.345
3825.604	5.997	7.045	24.954
3826.485	4.710	7.111	21.879
3827.366	6.106	7.225	20.459
3828.247	7.214	7.366	20.729
3829.129	7.825	7.475	22.181
3830.011	7.793	7.507	24.156
3830.893	7.873	7.531	25.944
3831.775	12.813	7.648	26.105
3832.657	8.849	7.797	24.639
3833.540	14.427	7.843	23.179
3834.423	2.828	7.833	22.687
3835.306	7.667	7.881	23.098
3836.189	10.980	7.895	24.102
3837.072	8.780	7.773	24.605
3837.956	10.518	7.684	24.118
3838.840	9.194	7.589	22.851
3839.724	7.625	7.453	21.312
3840.608	9.558	7.307	20.747
3841.493	6.393	7.181	23.357
3842.377	5.988	7.148	27.157
3843.262	7.929	7.147	30.574
3844.147	7.788	7.114	33.100
3845.032	8.751	7.026	34.436
3845.918	8.735	6.905	35.290
3846.803	4.004	6.818	35.993
3847.689	1.213	6.765	36.128
3848.575	3.329	6.606	34.936
3849.462	5.349	6.517	33.378
3850.348	2.626	6.485	32.167
3851.235	3.964	6.400	31.772
3852.122	7.455	6.428	32.449
3853.009	7.031	6.486	33.228
3853.896	5.934	6.680	33.599
3854.784	7.024	6.905	32.733
3855.671	6.810	7.094	30.512
3856.559	11.374	7.247	29.052
3857.447	8.643	7.334	29.226
3858.336	4.117	7.418	28.899
3859.224	11.151	7.370	26.010
3860.113	6.970	7.336	22.827
3861.002	4.438	7.392	22.020
3861.891	7.739	7.474	24.827
3862.780	6.985	7.537	30.084
3863.670	7.181	7.583	34.635
3864.560	14.498	7.552	35.253
3865.449	8.669	7.422	33.167
3866.340	4.533	7.281	32.437
3867.230	9.571	7.200	32.421
3868.121	7.650	7.073	32.822
3869.011	2.140	6.965	32.455
3869.902	5.325	6.985	30.801
3870.793	9.920	6.949	28.150
3871.685	8.994	6.844	25.115
3872.576	11.487	6.788	22.982
3873.468	6.107	6.722	24.049
3874.360	9.922	6.647	28.409
3875.252	9.513	6.699	33.494
3876.145	11.455	6.697	36.383
3877.037	8.480	6.615	35.492
3877.930	7.501	6.552	32.223
3878.823	6.343	6.447	29.860
3879.717	2.801	6.394	29.466
3880.610	5.119	6.289	29.810
3881.504	8.461	6.246	29.429
3882.398	4.950	6.233	27.840
3883.292	1.140	6.159	26.638
3884.186	3.216	6.158	27.892
3885.080	10.768	6.097	30.422
3885.975	7.689	5.866	30.788
3886.870	1.603	5.754	28.890
3887.765	3.692	5.844	27.298
3888.660	6.827	5.933	27.205
3889.556	3.967	5.884	26.908
3890.451	5.547	5.857	26.991
3891.347	6.333	5.829	29.784
3892.243	4.670	5.830	34.882
3893.140	5.226	5.921	37.871
3894.036	4.613	6.107	37.793
3894.933	4.526	6.282	36.806
3895.830	6.175	6.471	36.348
3896.727	5.186	6.714	37.075
3897.625	3.671	6.871	38.581
3898.522	11.535	6.910	39.173
3899.420	9.283	6.943	38.203
3900.318	2.591	7.036	37.826
3901.216	7.850	7.103	38.086
3902.114	8.538	7.120	38.214
3903.013	7.710	7.109	37.174
3903.912	9.482	7.060	35.971
3904.811	10.586	6.999	36.036
3905.710	8.451	7.057	36.057
3906.609	7.036	7.176	34.839
3907.509	11.238	7.109	35.996
3908.409	4.854	7.011	41.184
3909.309	10.372	6.977	44.194
3910.209	7.099	6.941	43.841
3911.110	6.757	6.866	43.362
3912.010	10.580	6.804	44.256
3912.911	9.070	6.760	45.051
3913.812	6.370	6.760	45.910
3914.714	9.070	6.794	46.168
3915.615	3.682	6.863	44.205
3916.517	4.483	7.031	42.018
3917.419	11.025	7.133	40.555
3918.321	5.741	7.197	39.830
3919.223	5.686	7.223	38.117
3920.126	12.770	7.238	36.221
3921.029	12.106	7.316	33.352
3921.931	7.417	7.478	31.833
3922.835	9.304	7.441	32.196
3923.738	6.784	7.300	33.399
3924.642	4.128	7.168	34.690
3925.545	4.545	7.032	34.375
3926.449	7.381	6.864	32.858
3927.354	6.085	6.789	29.921
3928.258	8.374	6.912	26.672
3929.163	8.439	7.022	23.582
3930.067	7.113	7.073	20.581
3930.972	7.003	7.068	18.007
3931.878	6.228	6.984	16.007
3932.783	7.133	6.847	14.292
3933.689	7.258	6.846	12.676
3934.595	7.797	6.827	11.830
3935.501	6.348	6.809	12.176
3936.407	5.815	6.812	13.753
3937.314	7.031	6.787	16.246
3938.220	7.691	6.727	19.139
3939.127	6.468	6.688	21.966
3940.034	7.260	6.584	25.068
3940.942	10.699	6.553	27.921
3941.849	6.158	6.651	30.134
3942.757	4.589	6.765	31.695
3943.665	2.483	6.782	30.538
3944.573	9.821	6.861	28.622
3945.481	8.580	6.915	29.333
3946.390	7.366	6.991	32.699
3947.299	7.502	7.116	35.956
3948.208	6.793	7.225	36.956
3949.117	7.854	7.247	36.541
3950.026	4.005	7.253	37.191
3950.936	5.147	7.302	40.139
3951.846	8.177	7.368	42.259
3952.756	4.519	7.427	41.492
3953.666	8.676	7.450	39.997
3954.577	11.719	7.397	39.713
3955.487	10.695	7.470	40.224
3956.398	6.906	7.511	39.977
3957.309	6.151	7.504	37.907
3958.221	12.377	7.449	36.700
3959.132	13.531	7.365	37.646
3960.044	6.596	7.366	38.481
3960.956	8.125	7.414	36.736
3961.868	7.216	7.498	31.552
3962.780	7.247	7.654	26.214
3963.693	7.805	7.816	23.927
3964.606	5.488	7.873	23.655
3965.519	5.493	7.870	22.823
3966.432	8.431	7.970	20.171
3967.345	6.785	8.010	16.507
3968.259	7.384	7.989	13.624
3969.173	6.247	7.955	12.022
3970.087	9.945	7.922	11.803
3971.001	8.767	7.882	13.152
3971.915	12.230	7.854	15.980
3972.830	11.279	7.670	19.894
3973.745	7.130	7.538	23.939
3974.660	3.919	7.516	27.260
3975.575	3.256	7.446	29.136
3976.491	9.135	7.316	30.746
3977.407	9.821	7.365	32.798
3978.323	6.213	7.272	35.186
3979.239	9.051	7.237	37.609
3980.155	8.766	7.192	39.451
3981.072	6.861	6.940	40.986
3981.988	7.140	6.806	41.489
3982.905	7.825	6.608	40.728
3983.823	5.770	6.353	39.569
3984.740	2.632	6.098	39.443
3985.658	2.020	5.834	40.359
3986.576	1.160	5.547	40.387
3987.494	4.030	5.332	41.073
3988.412	0.001	5.258	42.768
3989.330	1.652	5.267	43.716
3990.249	6.696	5.364	43.652
3991.168	2.350	5.543	43.510
3992.087	2.397	5.767	44.421
3993.006	6.973	6.026	45.566
3993.926	5.383	6.304	44.746
3994.846	12.217	6.489	43.915
3995.766	9.936	6.666	42.952
3996.686	3.180	6.811	41.420
3997.606	6.568	6.851	41.473
3998.527	2.771	6.934	41.847
3999.447	4.178	7.017	42.794
4000.369	6.601	7.100	45.117
4001.290	5.839	7.272	46.799
4002.211	7.141	7.433	46.928
4003.133	8.601	7.454	47.124
4004.055	8.737	7.523	47.411
4004.977	6.052	7.665	45.692
4005.899	7.203	7.768	40.956
4006.822	9.486	7.778	38.242
4007.744	9.873	7.771	40.276
4008.667	8.747	7.800	44.447
4009.590	7.488	7.737	46.457
4010.514	5.255	7.699	46.692
4011.437	4.019	7.707	46.638
4012.361	7.376	7.625	46.921
4013.285	10.078	7.500	46.824
4014.209	6.472	7.449	46.585
4015.134	6.420	7.320	46.905
4016.058	6.745	7.110	47.609
4016.983	5.497	6.832	46.548
4017.908	3.814	6.596	45.314
4018.833	7.276	6.408	45.406
4019.759	8.513	6.180	47.044
4020.685	3.135	5.909	48.434
4021.610	2.327	5.685	48.712
4022.537	3.744	5.446	47.895
4023.463	2.428	5.329	47.750
4024.389	-0.183	5.392	47.629
4025.316	3.381	5.535	47.004
4026.243	2.553	5.657	46.607
4027.170	3.211	5.784	47.716
4028.098	3.014	5.975	48.759
4029.025	3.399	6.197	48.503
4029.953	7.291	6.455	47.968
4030.881	7.619	6.768	44.864
4031.809	5.157	7.051	41.877
4032.738	8.748	7.268	40.260
4033.667	9.737	7.494	38.634
4034.596	8.219	7.708	38.927
4035.525	7.451	7.867	41.124
4036.454	9.954	7.967	43.600
4037.383	8.670	8.042	46.168
4038.313	6.685	8.039	49.058
4039.243	9.285	8.066	50.237
4040.173	10.343	8.129	49.165
4041.104	11.038	8.232	47.489
4042.034	8.306	8.329	45.719
4042.965	10.657	8.280	46.449
4043.896	10.712	8.402	47.919
4044.827	9.006	8.503	44.710
4045.759	5.876	8.494	41.048
4046.691	6.771	8.498	43.280
4047.622	8.709	8.590	49.681
4048.555	8.106	8.556	54.462
4049.487	8.998	8.603	53.744
4050.419	5.706	8.567	50.889
4051.352	10.224	8.523	48.769
4052.285	9.820	8.542	47.437
4053.218	3.007	8.563	45.233
4054.152	11.260	8.531	43.875
4055.085	11.016	8.631	43.986
4056.019	8.798	8.760	43.607
4056.953	8.048	8.820	43.112
4057.887	5.082	8.831	42.804
4058.822	7.355	8.838	41.508
4059.757	9.162	8.770	41.068
4060.692	9.539	8.654	44.169
4061.627	7.378	8.525	46.915
4062.562	8.076	8.521	45.341
4063.498	10.921	8.612	39.850
4064.433	8.625	8.676	36.979
4065.369	6.759	8.765	37.729
4066.305	8.514	8.819	40.239
4067.242	10.945	8.911	41.703
4068.178	11.530	8.992	41.302
4069.115	8.634	8.997	43.412
4070.052	10.063	8.965	45.612
4070.990	14.001	9.048	45.228
4071.927	10.002	9.086	41.679
4072.865	7.430	9.061	39.881
4073.803	9.699	8.999	41.121
4074.741	8.350	8.987	43.407
4075.679	8.229	9.057	44.760
4076.618	10.365	9.038	43.522
4077.557	8.571	9.048	41.571
4078.496	9.243	8.991	39.470
4079.435	6.431	8.948	39.908
4080.374	10.413	8.946	42.047
4081.314	10.397	8.940	44.775
4082.254	9.962	8.990	46.638
4083.194	10.915	9.048	46.568
4084.134	9.710	9.016	45.706
4085.075	10.082	8.937	43.859
4086.015	10.262	8.819	42.471
4086.956	6.994	8.648	43.772
4087.898	7.879	8.520	47.389
4088.839	9.573	8.411	48.174
4089.781	7.712	8.367	47.896
4090.722	9.423	8.428	47.927
4091.664	8.628	8.578	46.887
4092.607	11.875	8.767	45.469
4093.549	12.185	8.948	44.511
4094.492	10.972	8.992	44.306
4095.435	11.270	9.071	44.144
4096.378	9.898	9.106	42.797
4097.321	7.543	9.034	41.235
4098.265	8.207	8.928	40.879
4099.208	10.566	8.865	40.550
4100.152	12.381	8.695	39.057
4101.097	8.698	8.429	36.483
4102.041	6.509	8.256	32.803
4102.986	7.381	8.266	31.144
4103.931	7.779	8.407	32.550
4104.876	9.367	8.604	36.152
4105.821	10.294	8.733	39.594
4106.766	6.793	8.904	41.959
4107.712	6.626	8.990	42.971
4108.658	8.890	8.936	42.810
4109.604	10.812	8.843	42.193
4110.551	10.242	8.786	42.389
4111.497	9.975	8.743	42.741
4112.444	9.912	8.618	42.744
4113.391	10.068	8.535	43.592
4114.338	8.048	8.542	45.007
4115.286	9.979	8.553	45.871
4116.233	14.294	8.545	46.139
4117.181	6.908	8.580	46.717
4118.130	6.746	8.559	46.637
4119.078	8.458	8.457	44.543
4120.026	7.445	8.340	42.354
4120.975	6.172	8.271	43.267
4121.924	8.553	8.231	43.940
4122.873	8.483	8.382	43.267
4123.823	11.272	8.543	43.154
4124.772	13.045	8.625	44.465
4125.722	8.957	8.676	45.290
4126.672	7.184	8.717	44.120
4127.623	7.631	8.606	42.907
4128.573	11.270	8.536	41.810
4129.524	7.615	8.518	42.383
4130.475	8.571	8.514	42.696
4131.426	7.606	8.488	41.868
4132.378	9.262	8.428	40.234
4133.329	8.889	8.357	38.561
4134.281	6.015	8.320	38.295
4135.233	5.001	8.331	39.942
4136.185	7.693	8.442	41.771
4137.138	12.732	8.608	42.579
4138.091	12.204	8.730	43.487
4139.044	9.091	8.814	45.220
4139.997	8.095	8.805	46.148
4140.950	11.789	8.789	46.344
4141.904	8.272	8.800	45.348
4142.858	9.133	8.856	42.031
4143.812	8.460	8.944	38.234
4144.766	6.147	8.985	36.624
4145.720	7.756	9.052	38.470
4146.675	8.314	9.155	41.825
4147.630	8.829	9.124	43.041
4148.585	11.138	8.980	42.331
4149.540	10.161	8.891	41.808
4150.496	7.795	8.823	41.362
4151.452	10.468	8.680	41.745
4152.408	9.047	8.567	42.463
4153.364	10.832	8.404	41.432
4154.321	8.983	8.166	39.866
4155.277	5.766	7.971	39.777
4156.234	7.512	7.902	40.825
4157.191	4.736	7.838	41.256
4158.149	7.004	7.915	41.752
4159.106	5.673	8.044	41.352
4160.064	5.534	8.067	42.847
4161.022	3.724	7.964	44.212
4161.980	6.319	7.941	44.970
4162.939	6.995	8.019	45.960
4163.897	6.727	8.182	46.370
4164.856	7.343	8.350	46.291
4165.815	8.722	8.414	45.825
4166.775	9.894	8.373	44.587
4167.734	9.562	8.439	41.515
4168.694	12.862	8.489	41.134
4169.654	6.574	8.524	42.946
4170.614	7.670	8.608	44.115
4171.574	11.094	8.716	42.929
4172.535	9.005	8.774	40.150
4173.496	10.369	8.815	37.795
4174.457	9.842	8.855	37.391
4175.418	7.532	8.791	38.371
4176.380	7.137	8.681	39.640
4177.342	7.113	8.648	39.612
4178.304	10.284	8.702	39.361
4179.266	10.002	8.648	39.236
4180.228	9.318	8.662	40.227
4181.191	7.520	8.740	41.197
4182.154	7.068	8.787	40.008
4183.117	9.679	8.786	39.008
4184.080	7.284	8.777	39.172
4185.044	6.150	8.742	39.948
4186.007	8.823	8.686	40.117
4186.971	11.499	8.608	39.004
4187.936	12.503	8.504	37.386
4188.900	7.879	8.405	36.259
4189.865	7.499	8.366	37.069
4190.830	7.574	8.394	39.441
4191.795	8.055	8.453	40.755
4192.760	9.892	8.531	40.474
4193.725	9.260	8.607	41.185
4194.691	8.880	8.720	41.932
4195.657	9.450	8.875	40.852
4196.623	9.437	8.886	39.121
4197.590	8.774	8.877	38.122
4198.556	10.119	8.791	36.596
4199.523	13.234	8.659	34.654
4200.490	7.910	8.504	35.555
4201.458	8.387	8.342	36.168
4202.425	7.477	8.301	35.891
4203.393	6.637	8.407	36.587
4204.361	10.235	8.512	37.707
4205.329	11.213	8.566	38.859
4206.298	7.909	8.583	40.067
4207.266	9.482	8.589	41.497
4208.235	12.145	8.577	42.266
4209.204	5.693	8.459	41.881
4210.174	7.885	8.451	41.400
4211.143	9.001	8.461	41.101
4212.113	11.884	8.422	40.772
4213.083	12.267	8.405	41.218
4214.053	9.812	8.441	41.520
4215.023	9.252	8.490	40.176
4215.994	7.815	8.562	38.658
4216.965	8.359	8.657	38.243
4217.936	11.174	8.748	38.767
4218.907	11.815	8.810	39.210
4219.879	9.702	8.871	40.342
4220.851	7.616	8.880	42.357
4221.823	10.049	8.890	43.283
4222.795	6.175	8.847	41.968
4223.767	9.773	8.769	39.416
4224.740	8.318	8.734	37.150
4225.713	10.059	8.689	34.277
4226.686	9.017	8.613	29.890
4227.659	8.733	8.621	26.769
4228.633	10.822	8.577	28.813
4229.607	10.022	8.445	34.979
4230.581	7.066	8.341	39.767
4231.555	6.114	8.266	41.169
4232.530	7.688	8.217	41.452
4233.504	7.058	8.274	40.149
4234.479	8.320	8.298	38.799
4235.454	12.541	8.291	37.594
4236.430	8.890	8.376	36.896
4237.405	8.134	8.440	35.844
4238.381	10.968	8.438	35.547
4239.357	10.316	8.467	36.373
4240.333	8.008	8.475	37.202
4241.310	7.557	8.483	37.984
4242.287	6.906	8.573	38.878
4243.263	10.744	8.631	38.417
4244.241	9.309	8.591	39.230
4245.218	8.201	8.549	40.244
4246.196	8.268	8.562	40.685
4247.173	6.742	8.586	40.962
4248.152	9.106	8.580	39.700
4249.130	9.125	8.663	37.268
4250.108	9.149	8.723	34.639
4251.087	11.674	8.765	34.296
4252.066	11.546	8.780	36.021
4253.045	9.350	8.749	38.435
4254.025	8.423	8.659	39.196
4255.004	10.609	8.515	37.262
4255.984	8.652	8.413	35.530
4256.964	8.938	8.344	37.268
4257.945	9.323	8.291	39.840
4258.925	7.979	8.278	39.558
4259.906	10.848	8.319	35.855
4260.887	10.386	8.359	31.878
4261.868	7.053	8.428	30.846
4262.849	8.750	8.547	33.319
4263.831	10.486	8.663	37.571
4264.813	9.450	8.757	40.024
4265.795	9.296	8.853	39.774
4266.778	10.358	8.929	39.190
4267.760	10.725	8.942	39.547
4268.743	9.629	8.887	38.829
4269.726	9.304	8.875	36.746
4270.709	11.053	8.909	34.394
4271.693	11.693	8.868	31.877
4272.676	11.131	8.754	30.042
4273.660	8.844	8.707	30.826
4274.644	5.667	8.746	32.606
4275.629	7.513	8.786	33.943
4276.613	9.408	8.835	35.180
4277.598	9.640	8.958	36.685
4278.583	6.528	9.059	38.026
4279.569	7.761	9.080	38.520
4280.554	8.040	8.977	37.461
4281.540	8.014	8.802	35.818
4282.526	7.550	8.582	35.449
4283.512	8.026	8.312	36.215
4284.499	8.018	8.050	37.096
4285.485	6.278	7.848	36.766
4286.472	6.081	7.837	34.531
4287.459	8.297	8.005	33.461
4288.447	9.863	8.292	33.819
4289.434	9.927	8.601	33.401
4290.422	6.567	8.750	30.718
4291.410	7.820	8.780	30.352
4292.398	8.482	8.755	32.310
4293.387	9.907	8.743	33.524
4294.375	10.496	8.749	34.131
4295.364	9.922	8.735	34.345
4296.353	8.772	8.712	33.909
4297.343	8.618	8.669	33.243
4298.332	10.704	8.680	30.867
4299.322	9.137	8.800	27.553
4300.312	7.115	8.944	25.052
4301.303	8.637	8.991	24.216
4302.293	11.311	9.050	24.955
4303.284	9.479	9.158	26.017
4304.275	9.966	9.191	26.102
4305.266	10.761	9.153	26.068
4306.258	11.085	9.054	26.552
4307.249	10.210	8.899	26.288
4308.241	10.546	8.795	24.854
4309.233	10.973	8.707	23.805
4310.226	7.566	8.676	23.511
4311.218	11.334	8.636	24.388
4312.211	9.700	8.596	26.225
4313.204	6.785	8.628	28.562
4314.197	10.652	8.666	30.754
4315.191	8.309	8.716	34.186
4316.184	8.603	8.764	37.863
4317.178	11.192	8.772	40.797
4318.173	11.186	8.728	42.079
4319.167	7.888	8.668	42.276
4320.162	6.362	8.648	41.394
4321.157	7.228	8.710	41.082
4322.152	7.361	8.848	39.817
4323.147	12.528	9.004	36.960
4324.143	7.132	9.133	33.616
4325.138	8.961	9.215	30.169
4326.134	8.669	9.217	27.678
4327.131	10.540	9.074	28.821
4328.127	7.778	8.881	32.503
4329.124	9.302	8.666	36.389
4330.121	9.616	8.436	38.725
4331.118	7.529	8.234	38.768
4332.115	6.505	8.132	38.228
4333.113	6.805	8.123	38.226
4334.111	9.941	8.191	38.592
4335.109	10.509	8.323	39.580
4336.107	7.454	8.524	38.736
4337.106	11.214	8.745	37.079
4338.104	8.670	8.812	35.159
4339.103	9.435	8.895	31.986
4340.103	10.985	8.851	28.709
4341.102	8.187	8.762	26.843
4342.102	7.902	8.750	27.143
4343.102	9.484	8.781	29.963
4344.102	7.465	8.682	32.924
4345.102	6.201	8.648	34.976
4346.103	9.604	8.589	36.624
4347.104	8.746	8.467	37.803
4348.105	9.687	8.351	38.656
4349.106	6.099	8.297	39.106
4350.108	6.787	8.196	39.357
4351.109	8.754	8.204	37.357
4352.111	8.264	8.299	34.279
4353.114	7.345	8.388	32.328
4354.116	8.403	8.423	33.151
4355.119	10.444	8.394	35.423
4356.122	8.811	8.273	37.230
4357.125	6.142	8.103	41.819
4358.128	7.209	7.906	52.771
4359.132	6.224	7.734	63.510
4360.136	8.115	7.565	63.092
4361.140	8.997	7.395	53.186
4362.144	3.828	7.428	46.146
4363.149	7.748	7.445	43.148
4364.153	8.277	7.407	41.482
4365.158	7.006	7.396	41.163
4366.164	5.538	7.392	41.615
4367.169	7.707	7.329	40.333
4368.175	7.208	7.310	39.091
4369.181	5.753	7.298	37.512
4370.187	10.470	7.361	37.227
4371.193	9.921	7.535	37.353
4372.200	6.904	7.815	37.414
4373.207	7.211	8.124	37.709
4374.214	7.736	8.328	36.454
4375.221	9.180	8.643	34.820
4376.229	11.144	8.947	33.976
4377.236	9.876	9.234	34.545
4378.244	9.458	9.440	36.418
4379.253	9.809	9.463	37.251
4380.261	6.841	9.436	37.871
4381.270	6.894	9.296	37.293
4382.279	10.901	9.060	36.047
4383.288	9.272	8.808	33.159
4384.297	6.936	8.564	27.801
4385.307	8.716	8.341	25.303
4386.317	7.189	8.290	28.942
4387.327	4.914	8.390	33.337
4388.337	8.660	8.624	34.174
4389.348	10.088	8.877	34.309
4390.359	10.758	9.049	34.446
4391.370	8.276	9.134	34.896
4392.381	7.984	9.199	35.431
4393.392	8.622	9.191	35.666
4394.404	8.754	9.219	35.722
4395.416	9.128	9.185	34.571
4396.428	7.595	8.984	34.138
4397.441	8.706	8.686	36.031
4398.453	7.335	8.523	37.932
4399.466	5.514	8.520	37.562
4400.479	7.712	8.751	35.780
4401.493	8.119	8.970	34.584
4402.506	5.937	8.904	35.109
4403.520	8.047	8.608	36.166
4404.534	6.032	8.551	35.775
4405.549	4.076	8.625	33.517
4406.563	7.255	8.803	32.566
4407.578	9.692	8.979	34.114
4408.593	8.577	9.075	35.715
4409.608	8.931	9.095	35.987
4410.624	11.311	9.058	36.588
4411.639	8.820	8.986	38.781
4412.655	5.550	8.831	40.618
4413.671	8.051	8.743	41.294
4414.688	10.408	8.800	39.099
4415.704	6.891	8.922	35.763
4416.721	10.362	9.038	34.610
4417.738	14.072	9.167	35.435
4418.756	11.388	9.234	37.476
4419.773	8.009	9.254	39.458
4420.791	7.770	9.304	40.708
4421.809	8.575	9.412	40.555
4422.827	9.954	9.483	37.987
4423.846	8.558	9.568	37.112
4424.865	11.160	9.638	37.015
4425.884	13.624	9.675	36.798
4426.903	10.406	9.648	37.261
4427.922	9.600	9.547	37.532
4428.942	11.544	9.454	38.227
4429.962	11.496	9.348	38.219
4430.982	7.587	9.269	37.754
4432.003	8.891	9.230	37.035
4433.023	10.811	9.206	36.926
4434.044	8.653	9.142	36.843
4435.065	8.409	9.002	35.409
4436.086	9.403	8.938	33.924
4437.108	7.532	8.985	33.669
4438.130	10.649	9.077	37.163
4439.152	9.703	9.124	39.735
4440.174	9.114	9.096	39.687
4441.197	9.351	9.069	39.373
4442.219	6.685	8.908	37.656
4443.242	7.277	8.610	35.334
4444.266	6.938	8.333	34.796
4445.289	6.364	8.171	36.256
4446.313	6.866	8.140	38.115
4447.337	7.771	8.314	38.580
4448.361	9.890	8.471	38.017
4449.385	11.207	8.648	37.758
4450.410	8.639	8.753	37.988
4451.435	7.516	8.804	38.208
4452.460	6.856	8.916	37.914
4453.485	12.384	8.967	37.207
4454.511	9.086	9.005	36.102
4455.536	9.061	9.065	32.955
4456.562	6.651	9.121	31.916
4457.589	9.077	9.209	32.597
4458.615	11.636	9.345	33.145
4459.642	8.388	9.333	33.560
4460.669	7.826	9.335	33.315
4461.696	10.196	9.225	33.145
4462.724	9.654	9.113	32.801
4463.751	10.046	9.068	33.979
4464.779	9.365	8.989	35.944
4465.808	10.331	8.817	36.159
4466.836	5.948	8.668	36.190
4467.865	9.826	8.736	36.439
4468.893	9.530	8.859	35.798
4469.923	6.465	8.939	34.713
4470.952	6.582	9.077	34.797
4471.982	7.527	9.281	36.094
4473.011	10.291	9.442	36.962
4474.041	9.553	9.499	38.047
4475.072	7.553	9.462	38.502
4476.102	8.137	9.388	37.897
4477.133	7.888	9.333	37.789
4478.164	9.296	9.287	38.459
4479.195	8.472	9.339	39.071
4480.227	9.902	9.464	37.705
4481.259	12.682	9.570	34.896
4482.290	8.772	9.614	33.322
4483.323	10.842	9.605	33.179
4484.355	11.597	9.530	34.829
4485.388	9.809	9.458	37.088
4486.421	9.621	9.477	38.340
4487.454	10.191	9.513	38.636
4488.487	8.263	9.496	38.406
4489.521	8.130	9.457	36.764
4490.555	10.309	9.458	34.715
4491.589	9.577	9.473	35.019
4492.623	9.497	9.469	36.279
4493.658	7.992	9.432	37.940
4494.693	8.932	9.382	37.469
4495.728	9.451	9.323	35.746
4496.763	10.247	9.219	36.078
4497.799	9.442	9.263	36.610
4498.834	9.750	9.380	37.311
4499.870	11.158	9.517	37.477
4500.907	10.074	9.634	37.264
4501.943	11.254	9.686	36.947
4502.980	11.232	9.654	37.217
4504.017	9.887	9.551	38.026
4505.054	10.462	9.511	39.052
4506.091	9.819	9.565	39.690
4507.129	8.280	9.683	38.928
4508.167	8.014	9.798	38.403
4509.205	9.081	9.822	39.164
4510.244	6.809	9.913	40.444
4511.282	10.531	9.932	39.464
4512.321	9.351	9.883	39.471
4513.360	8.761	9.822	39.078
4514.400	8.373	9.739	38.092
4515.439	8.940	9.565	37.659
4516.479	8.917	9.372	37.747
4517.519	7.022	9.250	37.806
4518.559	9.777	9.156	37.653
4519.600	12.286	9.097	37.343
4520.641	9.915	9.107	38.159
4521.682	11.131	9.030	38.637
4522.723	7.669	9.018	38.208
4523.765	6.222	9.040	37.700
4524.806	9.268	9.144	35.797
4525.848	10.046	9.289	35.855
4526.891	8.575	9.361	35.220
4527.933	10.096	9.434	33.574
4528.976	9.695	9.492	32.974
4530.019	8.746	9.479	33.193
4531.062	8.506	9.476	34.079
4532.105	10.320	9.544	34.622
4533.149	11.404	9.668	35.047
4534.193	11.762	9.832	34.904
4535.237	11.003	9.932	34.366
4536.282	10.745	9.982	34.045
4537.326	13.942	10.041	35.310
4538.371	10.173	10.119	37.971
4539.416	10.757	10.162	39.623
4540.462	9.152	10.135	38.055
4541.507	10.291	10.017	36.181
4542.553	9.297	9.900	36.683
4543.599	7.042	9.762	37.670
4544.645	7.852	9.669	37.190
4545.692	8.694	9.756	36.790
4546.739	7.446	9.914	36.211
4547.786	11.151	10.034	35.275
4548.833	12.186	10.109	34.787
4549.881	11.216	10.101	34.215
4550.928	12.971	10.000	33.588
4551.976	10.299	9.877	34.360
4553.025	9.017	9.846	36.227
4554.073	11.103	9.811	36.201
4555.122	9.887	9.818	35.579
4556.171	9.472	9.823	35.418
4557.220	10.299	9.768	34.787
4558.270	9.762	9.689	36.130
4559.319	10.154	9.721	36.995
4560.369	10.258	9.858	36.738
4561.419	10.618	9.941	37.333
4562.470	11.718	10.022	37.603
4563.520	10.925	10.116	37.294
4564.571	6.148	10.155	36.400
4565.623	9.822	10.263	34.538
4566.674	15.099	10.443	34.129
4567.726	10.080	10.559	35.152
4568.777	10.609	10.570	36.557
4569.830	11.011	10.519	36.989
4570.882	11.538	10.477	36.376
4571.935	11.338	10.466	35.872
4572.987	10.841	10.388	35.543
4574.040	10.314	10.384	35.993
4575.094	9.917	10.373	36.615
4576.147	10.207	10.288	37.270
4577.201	9.027	10.201	37.728
4578.255	10.879	10.139	36.870
4579.310	10.568	10.103	36.072
4580.364	10.680	10.115	35.182
4581.419	10.672	10.130	33.573
4582.474	9.706	10.128	33.321
4583.529	9.728	10.152	34.130
4584.585	9.501	10.227	34.164
4585.640	9.958	10.170	34.062
4586.696	10.016	10.025	34.710
4587.753	10.598	9.881	34.535
4588.809	8.501	9.731	35.803
4589.866	10.233	9.524	37.058
4590.923	8.272	9.359	36.904
4591.980	9.481	9.283	35.489
4593.038	7.488	9.279	34.107
4594.095	9.803	9.306	34.032
4595.153	9.661	9.338	34.627
4596.211	9.256	9.366	33.938
4597.270	10.259	9.385	33.365
4598.329	10.123	9.416	33.560
4599.387	7.877	9.533	34.253
4600.447	8.454	9.712	34.528
4601.506	11.079	9.887	34.083
4602.566	7.943	9.997	34.078
4603.626	10.240	10.004	34.502
4604.686	9.861	9.998	33.773
4605.746	11.371	10.036	33.961
4606.807	7.838	10.033	34.557
4607.868	9.432	9.960	34.641
4608.929	9.014	9.904	35.277
4609.990	11.308	9.887	36.713
4611.052	9.230	9.840	37.156
4612.114	10.318	9.766	35.956
4613.176	9.047	9.735	34.875
4614.238	9.518	9.755	34.757
4615.301	8.720	9.768	35.092
4616.364	8.238	9.776	35.066
4617.427	10.368	9.792	34.969
4618.490	9.366	9.836	34.619
4619.553	9.224	9.953	34.354
4620.617	11.201	10.096	34.295
4621.681	11.011	10.184	34.585
4622.746	11.589	10.322	34.684
4623.810	11.981	10.332	35.817
4624.875	8.487	10.344	35.867
4625.940	9.598	10.331	34.945
4627.005	9.074	10.257	34.715
4628.071	9.553	10.184	34.669
4629.137	10.350	10.140	35.072
4630.203	10.012	10.172	34.739
4631.269	11.652	10.272	34.847
4632.335	11.550	10.320	35.051
4633.402	10.607	10.304	35.241
4634.469	10.323	10.306	35.115
4635.536	10.484	10.231	34.664
4636.604	11.773	10.257	34.414
4637.672	11.451	10.295	33.927
4638.740	11.360	10.306	32.937
4639.808	9.085	10.310	33.219
4640.876	10.459	10.303	33.753
4641.945	9.308	10.207	33.940
4643.014	11.477	10.096	34.490
4644.083	11.280	9.987	34.099
4645.153	11.731	9.928	33.178
4646.222	10.000	9.910	33.060
4647.292	9.522	9.881	32.358
4648.363	6.842	9.901	31.340
4649.433	10.479	9.946	31.065
4650.504	12.885	9.953	32.269
4651.575	10.729	10.034	33.495
4652.646	11.455	10.175	34.213
4653.717	12.284	10.205	34.317
4654.789	11.143	10.163	33.865
4655.861	10.951	10.084	32.918
4656.933	8.890	10.029	32.571
4658.006	11.256	9.990	33.563
4659.078	10.380	9.942	34.940
4660.151	11.418	9.899	35.201
4661.224	10.805	9.917	35.251
4662.298	8.992	9.982	35.565
4663.371	8.645	10.017	35.351
4664.445	11.091	9.999	34.016
4665.519	9.916	9.978	33.261
4666.594	9.387	10.017	32.374
4667.668	9.559	10.098	30.960
4668.743	8.854	10.101	30.438
4669.818	10.062	10.142	31.289
4670.894	9.977	10.239	32.610
4671.970	10.093	10.340	34.388
4673.045	11.765	10.423	34.310
4674.122	9.507	10.514	33.412
4675.198	8.821	10.549	33.669
4676.275	8.280	10.533	34.548
4677.351	9.054	10.496	35.073
4678.429	11.261	10.460	34.115
4679.506	12.179	10.446	32.937
4680.584	7.494	10.511	32.532
4681.661	10.428	10.521	32.921
4682.740	9.962	10.485	33.566
4683.818	10.142	10.463	32.976
4684.896	10.515	10.470	33.441
4685.975	12.549	10.477	33.511
4687.054	10.502	10.500	33.312
4688.134	10.015	10.527	33.256
4689.213	11.214	10.489	33.264
4690.293	10.769	10.474	32.791
4691.373	11.148	10.487	32.185
4692.454	11.563	10.439	32.421
4693.534	11.453	10.437	32.447
4694.615	12.198	10.375	32.806
4695.696	9.747	10.392	33.807
4696.778	11.532	10.399	34.176
4697.859	9.154	10.329	33.725
4698.941	9.030	10.250	32.159
4700.023	12.532	10.171	31.082
4701.106	9.949	10.155	29.625
4702.188	9.454	10.113	30.397
4703.271	11.463	10.048	31.070
4704.354	10.099	9.998	30.364
4705.437	10.799	9.974	30.838
4706.521	10.348	9.986	32.152
4707.605	12.127	9.989	32.387
4708.689	12.754	9.960	31.385
4709.773	11.061	9.852	31.144
4710.858	9.716	9.728	31.500
4711.943	8.560	9.707	32.079
4713.028	8.168	9.691	33.402
4714.113	9.357	9.744	33.375
4715.199	10.760	9.824	32.007
4716.285	10.725	9.923	31.723
4717.371	10.215	10.021	32.909
4718.457	13.146	10.053	34.102
4719.544	6.419	9.993	34.579
4720.630	11.464	10.028	34.531
4721.718	11.535	10.092	34.580
4722.805	10.273	10.184	33.982
4723.892	10.698	10.302	33.490
4724.980	10.340	10.380	34.518
4726.068	11.525	10.358	34.579
4727.157	10.742	10.256	33.787
4728.245	8.115	10.133	33.402
4729.334	9.695	9.977	32.291
4730.423	9.756	9.812	31.659
4731.513	9.532	9.687	31.228
4732.602	9.328	9.527	31.275
4733.692	7.479	9.475	32.038
4734.782	9.231	9.547	32.452
4735.872	10.623	9.702	32.626
4736.963	8.686	9.845	32.818
4738.054	9.316	9.906	32.821
4739.145	8.591	10.001	33.283
4740.236	8.927	9.994	34.408
4741.328	9.499	10.017	33.707
4742.420	10.831	10.038	32.895
4743.512	10.658	10.020	33.686
4744.604	8.612	10.008	34.385
4745.697	10.351	9.947	33.822
4746.790	10.419	9.893	33.393
4747.883	8.403	9.914	33.724
4748.976	9.423	9.972	32.927
4750.070	11.459	10.030	32.763
4751.164	9.789	10.086	33.161
4752.258	9.626	10.091	32.972
4753.352	11.780	10.073	32.939
4754.447	10.748	10.074	32.252
4755.542	9.250	10.058	31.154
4756.637	10.805	10.016	30.541
4757.732	11.436	9.997	30.468
4758.828	10.280	9.991	31.515
4759.924	8.530	10.049	32.831
4761.020	9.382	10.043	32.472
4762.116	10.294	10.030	32.173
4763.213	12.179	10.025	30.430
4764.310	8.128	9.922	30.129
4765.407	7.874	9.803	30.299
4766.504	7.901	9.784	29.658
4767.602	10.155	9.755	29.715
4768.700	10.747	9.720	30.389
4769.798	10.010	9.710	31.657
4770.897	8.939	9.715	32.108
4771.995	11.512	9.754	31.806
4773.094	9.300	9.763	31.864
4774.193	6.817	9.766	32.051
4775.293	9.173	9.791	32.509
4776.392	10.367	9.848	33.329
4777.492	9.716	9.918	33.302
4778.593	9.700	9.965	33.392
4779.693	8.790	9.971	34.039
4780.794	8.846	9.991	33.913
4781.895	11.332	10.070	32.995
4782.996	12.445	10.189	32.394
4784.097	10.467	10.288	31.767
4785.199	12.313	10.363	30.980
4786.301	10.534	10.447	31.200
4787.403	10.511	10.474	30.723
4788.506	10.543	10.469	30.519
4789.608	12.480	10.455	30.678
4790.711	9.192	10.406	30.911
4791.815	8.896	10.332	31.484
4792.918	11.502	10.205	31.504
4794.022	11.156	10.010	31.013
4795.126	10.230	9.865	31.386
4796.230	9.070	9.830	32.775
4797.334	10.181	9.845	33.003
4798.439	10.945	9.914	32.747
4799.544	10.064	9.990	32.048
4800.650	10.086	10.051	31.180
4801.755	12.097	10.093	31.078
4802.861	10.547	10.119	32.045
4803.967	8.285	10.142	32.467
4805.073	11.585	10.196	31.651
4806.180	12.057	10.242	31.095
4807.286	11.459	10.262	30.712
4808.393	9.631	10.279	30.116
4809.501	9.860	10.308	30.167
4810.608	11.332	10.339	30.508
4811.716	8.530	10.366	31.049
4812.824	10.145	10.468	31.096
4813.933	12.141	10.504	30.677
4815.041	11.577	10.465	31.071
4816.150	10.675	10.447	31.753
4817.259	11.182	10.481	32.588
4818.368	9.040	10.402	32.708
4819.478	11.442	10.333	32.296
4820.588	9.688	10.246	32.601
4821.698	9.433	10.177	32.772
4822.808	11.393	10.187	31.704
4823.919	11.104	10.240	30.976
4825.030	11.643	10.179	30.654
4826.141	10.785	10.245	30.807
4827.252	9.349	10.204	31.579
4828.364	10.852	10.089	31.824
4829.476	9.879	9.987	31.483
4830.588	8.604	9.875	31.587
4831.700	10.938	9.851	30.984
4832.813	10.012	9.866	31.092
4833.926	9.333	9.859	31.496
4835.039	10.206	9.903	31.257
4836.153	11.806	10.020	31.404
4837.266	10.267	10.123	31.298
4838.380	10.545	10.195	31.294
4839.494	8.660	10.227	31.247
4840.609	9.299	10.273	30.843
4841.724	10.587	10.341	30.270
4842.839	10.915	10.388	30.075
4843.954	9.103	10.382	30.174
4845.069	11.296	10.378	30.088
4846.185	10.864	10.353	31.066
4847.301	10.534	10.326	31.125
4848.417	11.388	10.243	30.851
4849.534	9.615	10.140	30.378
4850.651	9.517	10.129	30.050
4851.768	9.979	10.088	30.363
4852.885	10.163	10.072	30.635
4854.003	9.957	10.059	30.267
4855.120	9.140	10.053	29.097
4856.238	9.365	10.090	27.579
4857.357	10.391	10.165	26.698
4858.475	10.135	10.179	26.652
4859.594	9.667	10.315	25.930
4860.713	11.340	10.445	23.871
4861.833	12.304	10.504	21.441
4862.952	10.640	10.538	20.650
4864.072	10.665	10.560	22.348
4865.192	10.439	10.425	24.736
4866.313	10.853	10.373	26.334
4867.433	10.924	10.355	27.523
4868.554	10.084	10.342	28.283
4869.675	10.195	10.373	28.244
4870.797	10.705	10.436	27.872
4871.918	9.939	10.369	26.420
4873.040	10.053	10.314	24.789
4874.162	10.309	10.257	25.468
4875.285	11.005	10.205	27.352
4876.408	10.017	10.197	28.353
4877.531	10.849	10.238	28.439
4878.654	12.545	10.256	28.355
4879.777	10.685	10.295	28.922
4880.901	9.628	10.332	29.241
4882.025	10.520	10.366	29.025
4883.149	10.822	10.409	29.015
4884.274	11.247	10.456	29.051
4885.399	10.894	10.500	28.708
4886.524	10.463	10.540	27.996
4887.649	10.920	10.476	27.334
4888.774	10.802	10.402	27.359
4889.900	10.590	10.359	27.767
4891.026	9.648	10.259	26.438
4892.153	9.528	10.193	25.421
4893.279	10.985	10.224	26.383
4894.406	11.591	10.243	28.422
4895.533	10.948	10.228	30.262
4896.661	11.940	10.190	30.457
4897.788	9.927	10.127	30.703
4898.916	8.333	10.108	30.273
4900.044	11.468	10.148	29.323
4901.173	10.748	10.173	28.858
4902.301	13.694	10.188	28.728
4903.430	8.179	10.189	28.954
4904.559	8.159	10.150	29.023
4905.689	10.528	10.144	29.724
4906.819	9.554	10.104	30.618
4907.949	7.321	10.046	30.418
4909.079	9.395	10.022	29.492
4910.209	9.601	10.023	28.963
4911.340	9.991	9.996	28.266
4912.471	11.637	10.020	27.839
4913.602	11.295	10.057	28.361
4914.734	9.213	10.084	29.312
4915.866	11.038	10.064	29.544
4916.998	10.266	10.001	29.484
4918.130	9.208	9.958	28.745
4919.263	9.743	9.958	27.151
4920.395	8.331	9.903	25.039
4921.528	8.570	9.753	23.818
4922.662	9.011	9.595	24.786
4923.795	8.312	9.463	26.690
4924.929	8.690	9.307	27.153
4926.063	9.693	9.234	27.584
4927.198	7.525	9.527	28.208
4928.332	7.183	10.366	28.381
4929.467	10.259	11.026	28.948
4930.603	7.676	10.814	29.483
4931.738	9.976	9.912	29.217
4932.874	7.417	9.305	29.151
4934.010	6.999	9.285	27.797
4935.146	9.453	9.329	27.011
4936.282	10.158	9.341	27.508
4937.419	8.189	9.386	27.361
4938.556	11.168	9.383	27.086
4939.693	7.300	9.357	27.091
4940.831	9.090	9.409	27.021
4941.969	10.381	9.470	27.949
4943.107	9.605	9.572	29.479
4944.245	11.148	9.704	28.599
4945.384	10.634	9.776	28.732
4946.523	8.478	9.886	29.134
4947.662	10.120	9.973	28.557
4948.801	9.955	9.980	29.257
4949.941	8.971	9.937	29.916
4951.081	11.120	9.901	29.456
4952.221	9.644	9.882	29.516
4953.361	8.413	9.791	29.554
4954.502	9.524	9.707	29.111
4955.643	8.729	9.674	29.228
4956.784	9.677	9.671	28.092
4957.926	9.958	9.649	25.534
4959.067	7.518	9.617	24.503
4960.209	7.473	9.703	26.204
4961.352	8.363	9.886	28.316
4962.494	10.707	10.105	28.873
4963.637	12.078	10.307	28.797
4964.780	10.659	10.454	28.919
4965.923	9.781	10.521	28.804
4967.067	10.021	10.512	28.396
4968.211	11.222	10.416	28.282
4969.355	9.480	10.328	28.042
4970.499	9.963	10.311	28.110
4971.644	10.783	10.315	28.171
4972.789	9.617	10.275	28.658
4973.934	10.292	10.350	29.527
4975.079	11.662	10.387	29.437
4976.225	9.836	10.343	29.647
4977.371	10.140	10.234	30.218
4978.517	9.626	10.127	29.603
4979.664	9.436	10.090	29.152
4980.810	8.922	10.063	29.439
4981.957	10.591	10.162	29.652
4983.105	8.277	10.178	28.769
4984.252	10.691	10.166	27.086
4985.400	10.331	10.152	26.785
4986.548	11.535	9.967	27.578
4987.696	10.843	9.696	28.706
4988.845	6.969	9.501	29.896
4989.994	9.881	9.488	29.557
4991.143	8.939	9.579	28.865
4992.292	8.810	9.680	28.508
4993.442	9.164	9.802	27.941
4994.592	10.765	9.993	27.793
4995.742	9.385	10.146	28.230
4996.892	9.430	10.282	28.398
4998.043	10.905	10.404	28.458
4999.194	10.955	10.466	28.015
5000.345	11.687	10.428	27.323
5001.497	10.677	10.341	26.916
5002.649	9.657	10.195	26.454
5003.801	11.685	10.106	25.845
5004.953	11.547	10.070	25.778
5006.106	9.335	10.002	25.611
5007.258	9.672	9.891	24.591
5008.411	10.907	9.907	24.559
5009.565	9.758	9.983	25.501
5010.718	10.022	10.146	26.915
5011.872	11.404	10.311	27.016
5013.026	10.866	10.405	25.482
5014.181	11.783	10.466	25.216
5015.336	12.079	10.526	24.735
5016.491	8.599	10.590	24.870
5017.646	9.330	10.598	24.881
5018.801	10.027	10.606	24.406
5019.957	10.470	10.636	24.512
5021.113	9.561	10.600	25.561
5022.269	10.701	10.481	25.126
5023.426	11.364	10.440	25.006
5024.583	8.035	10.258	25.678
5025.740	10.546	10.150	26.021
5026.897	7.997	10.335	26.248
5028.055	8.433	10.649	25.561
5029.213	10.960	10.832	25.165
5030.371	11.507	10.651	25.670
5031.529	11.142	10.394	26.474
5032.688	11.861	10.238	26.798
5033.847	10.303	10.178	27.264
5035.006	8.415	10.119	27.430
5036.166	10.032	9.973	26.361
5037.325	10.270	9.969	25.220
5038.485	10.575	10.001	24.773
5039.646	9.433	10.060	25.183
5040.806	9.621	10.153	25.014
5041.967	10.157	10.214	23.177
5043.128	11.471	10.290	22.655
5044.289	10.580	10.284	24.245
5045.451	10.687	10.231	26.034
5046.613	9.713	10.161	27.036
5047.775	9.911	10.068	27.243
5048.938	9.253	9.928	26.387
5050.100	8.504	9.726	25.503
5051.263	9.745	9.590	24.889
5052.426	8.583	9.518	25.187
5053.590	7.601	9.478	25.723
5054.754	8.201	9.528	26.032
5055.918	7.877	9.729	26.855
5057.082	8.969	9.841	26.812
5058.247	10.047	9.888	26.481
5059.411	10.248	9.952	26.653
5060.577	11.028	9.972	26.808
5061.742	11.316	9.963	26.713
5062.908	11.019	10.035	26.883
5064.073	9.593	10.000	26.989
5065.240	9.847	9.972	26.469
5066.406	10.319	9.992	25.242
5067.573	9.698	9.994	25.235
5068.740	9.078	9.922	25.926
5069.907	8.370	9.809	25.648
5071.075	8.748	9.742	26.469
5072.242	9.910	9.699	26.872
5073.410	8.089	9.716	25.931
5074.579	11.859	10.069	25.387
5075.747	9.342	10.852	25.670
5076.916	11.779	11.616	25.702
5078.085	10.401	11.584	26.478
5079.255	10.080	10.799	26.090
5080.424	9.792	10.096	24.684
5081.594	8.775	9.729	23.954
5082.765	9.269	9.540	24.906
5083.935	9.060	9.404	26.453
5085.106	10.710	9.380	26.302
5086.277	9.712	9.391	27.235
5087.448	8.975	9.392	27.871
5088.620	9.562	9.393	27.405
5089.792	8.281	9.438	27.009
5090.964	10.043	9.533	26.144
5092.136	10.140	9.561	25.789
5093.309	11.593	9.587	26.188
5094.482	9.255	9.643	26.628
5095.655	8.987	9.712	26.522
5096.828	9.883	9.745	26.131
5098.002	8.663	9.726	25.893
5099.176	10.983	9.787	24.396
5100.350	8.611	9.900	23.900
5101.525	8.443	9.967	24.873
5102.700	11.828	10.017	25.647
5103.875	11.232	10.047	25.794
5105.050	10.084	9.965	26.507
5106.226	7.506	9.833	25.807
5107.402	8.618	9.701	25.385
5108.578	7.723	9.575	24.614
5109.754	9.057	9.431	23.901
5110.931	8.024	9.304	24.081
5112.108	7.978	9.299	24.587
5113.285	10.320	9.445	25.121
5114.463	10.398	9.630	25.236
5115.640	11.916	9.825	25.283
5116.818	9.754	9.953	25.914
5117.997	10.094	9.962	26.217
5119.175	9.116	9.888	26.502
5120.354	9.461	9.789	26.360
5121.533	9.978	9.762	25.694
5122.713	8.629	9.746	24.884
5123.892	9.385	9.804	24.212
5125.072	10.837	9.959	23.638
5126.253	9.904	10.077	23.686
5127.433	10.149	10.102	23.524
5128.614	10.231	10.182	23.267
5129.795	10.597	10.267	23.417
5130.976	12.354	10.307	23.508
5132.158	11.115	10.284	23.543
5133.340	11.371	10.196	23.846
5134.522	11.079	10.063	24.047
5135.704	8.972	9.916	24.361
5136.887	9.406	9.822	24.320
5138.070	9.043	9.779	24.003
5139.253	9.905	9.784	23.191
5140.437	10.808	9.841	22.697
5141.620	9.222	9.819	23.150
5142.804	9.900	9.801	23.350
5143.989	9.581	9.792	23.525
5145.173	8.013	9.804	24.022
5146.358	10.156	9.790	23.999
5147.543	11.032	9.682	23.619
5148.729	10.035	9.637	23.652
5149.914	10.952	9.540	24.537
5151.100	10.332	9.472	24.993
5152.286	9.400	9.412	24.684
5153.473	8.754	9.371	24.500
5154.660	8.083	9.446	24.698
5155.847	9.579	9.557	24.689
5157.034	11.237	9.656	24.452
5158.222	10.640	9.751	24.433
5159.410	10.383	9.834	24.838
5160.598	11.475	9.898	24.794
5161.786	10.249	9.950	24.669
5162.975	10.050	9.972	24.149
5164.164	10.792	9.997	23.718
5165.353	9.778	10.023	23.383
5166.542	9.782	9.971	22.136
5167.732	9.357	9.828	19.701
5168.922	10.341	9.695	18.169
5170.113	8.459	9.601	19.103
5171.303	8.872	9.574	20.434
5172.494	9.620	9.628	19.462
5173.685	9.832	9.657	17.602
5174.877	9.561	9.633	18.295
5176.068	9.643	9.654	20.952
5177.260	9.469	9.629	23.170
5178.453	8.948	9.613	23.855
5179.645	7.757	9.611	24.046
5180.838	8.176	9.606	24.374
5182.031	8.485	9.607	23.418
5183.224	9.150	9.660	20.691
5184.418	9.215	9.787	17.454
5185.612	10.477	9.873	17.148
5186.806	11.185	9.947	19.682
5188.000	9.978	9.990	22.900
5189.195	9.907	9.996	24.294
5190.390	10.771	9.989	23.760
5191.585	10.737	9.879	23.306
5192.781	11.315	9.763	22.264
5193.977	10.914	9.646	21.627
5195.173	9.263	9.541	22.255
5196.369	8.687	9.443	22.535
5197.566	8.792	9.345	22.466
5198.763	10.246	9.343	23.977
5199.960	9.828	9.366	25.083
5201.157	9.238	9.359	25.064
5202.355	8.852	9.421	25.315
5203.553	8.997	9.536	24.895
5204.752	10.480	9.560	24.557
5205.950	9.818	9.694	23.088
5207.149	9.116	9.689	21.941
5208.348	9.544	9.651	21.939
5209.547	8.596	9.611	22.329
5210.747	9.748	9.538	22.997
5211.947	7.702	9.456	24.353
5213.147	9.371	9.410	24.557
5214.348	10.360	9.411	23.680
5215.549	8.815	9.433	23.597
5216.750	9.121	9.430	22.929
5217.951	8.761	9.395	22.697
5219.153	9.999	9.367	22.795
5220.355	7.512	9.358	23.509
5221.557	7.895	9.381	24.692
5222.759	10.014	9.397	24.525
5223.962	10.226	9.378	24.309
5225.165	12.458	9.370	24.224
5226.368	10.119	9.448	23.530
5227.572	9.627	9.518	21.821
5228.776	8.849	9.628	20.716
5229.980	10.143	9.698	21.940
5231.184	10.365	9.724	23.470
5232.389	10.250	9.716	24.034
5233.594	10.043	9.625	23.174
5234.799	9.610	9.463	22.230
5236.004	10.158	9.247	22.409
5237.210	10.423	8.928	23.196
5238.416	9.118	8.578	24.210
5239.623	7.613	8.301	25.286
5240.829	6.419	8.136	25.008
5242.036	9.261	8.115	24.452
5243.243	7.700	8.066	23.922
5244.451	8.416	8.037	22.858
5245.658	8.148	8.125	23.220
5246.866	7.724	8.359	23.993
5248.075	9.487	8.656	23.933
5249.283	9.632	8.861	23.578
5250.492	10.482	8.959	23.603
5251.701	9.024	8.951	23.448
5252.910	10.424	8.866	23.083
5254.120	9.135	8.704	23.529
5255.330	8.147	8.461	23.899
5256.540	8.843	8.315	24.359
5257.751	8.627	8.444	25.005
5258.962	10.457	8.726	25.073
5260.173	11.810	8.990	24.305
5261.384	10.404	9.171	23.653
5262.596	8.098	9.313	22.927
5263.808	10.236	9.381	21.168
5265.020	8.843	9.290	20.433
5266.232	8.480	9.258	19.853
5267.445	8.751	9.349	19.602
5268.658	10.094	9.483	20.403
5269.871	10.486	9.594	20.923
5271.085	9.144	9.737	20.282
5272.299	10.188	9.790	20.878
5273.513	11.568	9.773	21.713
5274.727	9.217	9.686	22.624
5275.942	8.689	9.554	23.111
5277.157	9.166	9.427	23.461
5278.372	8.956	9.183	23.492
5279.588	9.614	9.056	23.614
5280.803	8.015	9.040	23.833
5282.019	8.158	9.097	23.068
5283.236	8.619	9.225	21.795
5284.453	9.210	9.418	21.781
5285.669	10.434	9.584	22.137
5286.887	9.882	9.720	23.028
5288.104	9.389	9.764	23.727
5289.322	10.313	9.777	23.847
5290.540	9.363	9.842	24.089
5291.758	10.881	9.949	24.337
5292.977	12.881	10.035	24.578
5294.196	10.572	9.990	24.530
5295.415	9.535	9.919	24.325
5296.634	8.790	9.824	23.568
5297.854	8.378	9.635	22.776
5299.074	9.517	9.402	21.983
5300.294	8.094	9.393	22.661
5301.515	8.277	9.478	23.391
5302.736	9.384	9.625	23.046
5303.957	9.818	9.752	23.308
5305.178	9.804	9.810	23.886
5306.400	10.315	9.845	23.788
5307.622	8.778	9.870	24.099
5308.844	8.375	9.922	23.842
5310.067	10.389	10.040	23.305
5311.290	12.090	10.143	23.677
5312.513	11.493	10.188	24.116
5313.736	11.649	10.241	24.070
5314.960	10.747	10.255	24.186
5316.184	10.950	10.235	23.505
5317.408	10.384	10.202	22.504
5318.633	11.120	10.141	22.521
5319.858	11.312	10.052	23.142
5321.083	9.529	9.971	23.540
5322.308	10.056	9.867	23.430
5323.534	7.941	9.840	23.335
5324.760	8.054	9.856	22.854
5325.986	10.135	9.889	21.962
5327.212	8.045	9.938	22.369
5328.439	10.894	9.989	20.686
5329.666	12.253	10.014	19.108
5330.893	9.592	10.104	20.328
5332.121	10.607	10.158	22.181
5333.349	10.542	10.103	22.854
5334.577	10.944	9.941	22.973
5335.806	10.061	9.714	23.118
5337.034	8.891	9.436	23.364
5338.263	8.113	9.230	23.489
5339.493	6.368	9.052	22.726
5340.722	8.584	8.968	22.483
5341.952	9.002	8.989	21.680
5343.182	9.679	8.986	21.505
5344.413	7.481	9.024	22.707
5345.644	8.398	9.215	23.087
5346.875	8.846	9.432	22.638
5348.106	9.336	9.600	22.377
5349.338	9.641	9.732	22.425
5350.569	9.851	9.859	22.622
5351.802	9.840	10.008	23.189
5353.034	9.795	10.109	23.250
5354.267	9.835	10.125	23.010
5355.500	9.613	10.081	23.085
5356.733	9.816	10.049	23.955
5357.967	10.484	10.102	24.471
5359.200	10.625	10.239	23.729
5360.435	12.050	10.369	23.241
5361.669	10.710	10.431	23.429
5362.904	10.225	10.498	22.699
5364.139	9.926	10.597	21.861
5365.374	11.063	10.619	21.754
5366.610	9.781	10.543	21.517
5367.845	10.745	10.437	21.323
5369.082	11.342	10.327	21.300
5370.318	9.720	10.178	21.213
5371.555	9.570	9.999	20.438
5372.792	9.931	9.919	20.097
5374.029	9.501	10.065	21.278
5375.266	9.380	10.161	22.585
5376.504	10.731	10.246	23.123
5377.742	11.514	10.367	22.755
5378.981	9.935	10.482	22.638
5380.220	9.619	10.548	22.553
5381.459	10.882	10.642	21.917
5382.698	10.997	10.656	21.563
5383.937	9.858	10.712	21.212
5385.177	10.411	10.738	21.317
5386.417	11.409	10.668	22.009
5387.658	10.722	10.625	22.510
5388.898	10.228	10.585	22.149
5390.139	10.159	10.528	21.544
5391.381	11.521	10.486	21.110
5392.622	9.808	10.442	21.228
5393.864	11.995	10.385	21.659
5395.106	9.633	10.345	21.596
5396.349	10.581	10.305	21.075
5397.591	9.933	10.188	20.515
5398.834	10.239	10.031	20.316
5400.078	10.984	9.869	20.266
5401.321	8.190	9.715	20.484
5402.565	9.309	9.603	21.040
5403.809	9.013	9.587	21.020
5405.054	10.058	9.700	20.359
5406.298	8.946	9.860	19.382
5407.543	10.891	10.018	19.443
5408.789	10.892	10.165	20.271
5410.034	9.748	10.273	20.794
5411.280	10.392	10.265	20.598
5412.526	9.008	10.275	20.667
5413.772	10.255	10.237	21.156
5415.019	10.274	10.137	20.762
5416.266	9.221	10.060	20.599
5417.513	12.059	10.094	20.838
5418.761	11.681	10.184	21.353
5420.009	8.830	10.168	21.543
5421.257	9.112	10.180	21.440
5422.505	11.201	10.196	21.525
5423.754	9.546	10.176	21.370
5425.003	9.252	10.239	20.791
5426.253	9.259	10.412	20.514
5427.502	9.928	10.514	21.335
5428.752	10.034	10.612	21.910
5430.002	11.249	10.693	21.023
5431.253	11.423	10.734	20.513
5432.503	10.626	10.787	20.772
5433.754	11.317	10.760	20.939
5435.006	10.657	10.732	20.794
5436.257	10.666	10.651	20.751
5437.509	9.993	10.523	21.137
5438.761	10.470	10.413	21.259
5440.014	9.855	10.345	21.704
5441.267	8.948	10.207	22.740
5442.520	10.955	10.140	22.558
5443.773	9.906	10.056	22.563
5445.027	10.530	9.948	21.826
5446.280	8.359	9.914	21.191
5447.535	8.575	10.011	20.416
5448.789	10.217	10.094	19.913
5450.044	11.327	10.274	20.938
5451.299	12.233	10.382	21.884
5452.554	8.985	10.426	22.331
5453.810	9.594	10.483	21.910
5455.066	10.595	10.511	21.581
5456.322	12.186	10.471	20.463
5457.579	12.400	10.432	19.982
5458.835	9.500	10.376	21.650
5460.092	9.362	10.362	26.607
5461.350	13.131	10.402	36.918
5462.608	11.926	10.385	42.572
5463.865	12.062	10.359	35.828
5465.124	10.720	10.234	26.541
5466.382	10.306	10.125	22.855
5467.641	9.180	10.069	22.494
5468.900	9.699	10.030	22.578
5470.160	9.214	9.975	22.435
5471.419	9.425	9.866	22.076
5472.679	11.533	9.867	21.724
5473.940	9.900	9.884	21.632
5475.200	9.901	9.894	21.384
5476.461	10.309	9.922	20.959
5477.722	10.403	9.922	20.379
5478.984	8.940	9.825	20.110
5480.245	8.596	9.746	20.970
5481.507	7.917	9.687	21.585
5482.770	9.702	9.648	21.723
5484.032	8.933	9.670	22.012
5485.295	9.558	9.783	22.436
5486.558	10.368	9.878	22.756
5487.822	8.416	10.034	22.094
5489.086	10.306	10.166	21.308
5490.350	11.436	10.240	20.739
5491.614	10.310	10.286	20.949
5492.879	11.234	10.343	21.599
5494.144	11.035	10.419	21.427
5495.409	10.414	10.388	21.053
5496.674	10.939	10.347	21.009
5497.940	8.396	10.326	21.148
5499.206	10.456	10.294	21.355
5500.473	10.693	10.269	21.333
5501.739	9.266	10.311	21.521
5503.006	7.974	10.263	21.385
5504.273	9.469	10.198	20.924
5505.541	8.531	10.107	20.787
5506.809	9.846	10.012	20.732
5508.077	11.230	10.030	20.817
5509.345	9.323	10.008	20.986
5510.614	8.805	9.966	21.314
5511.883	11.118	10.006	21.225
5513.152	11.307	10.123	20.580
5514.422	10.060	10.276	20.479
5515.692	8.344	10.440	21.359
5516.962	12.110	10.479	21.564
5518.233	11.377	10.530	21.404
5519.503	11.679	10.460	21.378
5520.774	10.153	10.305	21.821
5522.046	9.770	10.183	22.331
5523.317	10.112	10.107	21.981
5524.589	9.739	10.089	21.645
5525.862	8.634	10.119	21.536
5527.134	10.540	10.125	20.931
5528.407	9.855	10.124	20.233
5529.680	11.579	10.112	19.419
5530.953	9.389	10.010	19.517
5532.227	8.090	9.935	20.932
5533.501	8.354	10.034	21.295
5534.775	11.179	10.144	20.613
5536.050	10.547	10.170	20.134
5537.325	11.507	10.147	20.084
5538.600	11.452	10.127	20.211
5539.875	10.321	10.088	20.450
5541.151	9.681	10.117	21.116
5542.427	10.636	10.146	21.363
5543.704	10.119	10.162	22.160
5544.980	10.563	10.174	22.456
5546.257	10.994	10.151	22.016
5547.534	11.027	10.117	21.692
5548.812	9.013	10.073	20.886
5550.090	8.941	9.990	21.182
5551.368	8.518	9.903	21.578
5552.646	9.518	9.846	21.536
5553.925	7.679	9.811	21.155
5555.204	9.229	9.860	20.713
5556.483	9.060	9.864	20.248
5557.763	11.371	9.884	20.071
5559.043	8.773	9.944	20.456
5560.323	8.522	10.031	20.470
5561.603	11.458	10.121	20.630
5562.884	10.441	10.107	20.914
5564.165	9.966	10.095	21.416
5565.446	11.270	10.105	22.144
5566.728	9.803	10.123	22.059
5568.010	9.275	10.152	20.623
5569.292	12.230	10.189	20.044
5570.575	9.213	10.156	20.922
5571.857	8.949	10.169	20.991
5573.141	10.850	10.145	20.015
5574.424	9.699	10.105	20.322
5575.708	8.576	10.114	23.212
5576.992	11.714	10.129	67.414
5578.276	5.945	10.096	161.919
5579.561	5.596	10.065	175.214
5580.846	7.165	10.040	86.560
5582.131	10.293	10.045	32.389
5583.416	9.560	10.049	22.515
5584.702	9.729	9.979	20.356
5585.988	9.845	10.009	19.674
5587.274	8.648	10.006	19.174
5588.561	9.417	9.988	18.609
5589.848	8.790	9.953	19.562
5591.135	9.613	9.926	20.797
5592.423	11.025	9.993	20.563
5593.711	10.662	10.060	19.754
5594.999	10.381	10.127	19.179
5596.287	9.320	10.241	19.634
5597.576	11.353	10.326	20.024
5598.865	10.956	10.306	20.066
5600.154	10.896	10.257	19.991
5601.444	10.600	10.247	19.430
5602.734	9.497	10.178	19.254
5604.024	9.174	10.077	19.164
5605.315	9.961	10.004	20.532
5606.606	9.540	9.994	22.695
5607.897	8.042	10.032	22.357
5609.188	9.978	10.064	20.833
5610.480	9.767	10.103	20.484
5611.772	9.548	10.134	20.789
5613.064	8.916	10.150	20.779
5614.357	9.984	10.172	20.469
5615.650	10.905	10.219	19.295
5616.943	9.644	10.234	18.430
5618.236	10.143	10.277	19.309
5619.530	9.416	10.298	20.342
5620.824	9.713	10.314	20.187
5622.119	10.132	10.337	19.945
5623.413	9.772	10.320	20.093
5624.708	9.060	10.361	21.076
5626.004	9.287	10.399	21.125
5627.299	9.795	10.417	20.021
5628.595	10.550	10.428	19.906
5629.891	9.363	10.425	20.309
5631.188	9.147	10.375	20.712
5632.484	8.143	10.352	20.687
5633.782	10.450	10.376	20.250
5635.079	11.674	10.344	19.790
5636.377	10.533	10.294	19.467
5637.675	10.022	10.274	19.371
5638.973	10.571	10.220	19.333
5640.271	10.465	10.198	19.935
5641.570	11.721	10.131	19.976
5642.869	9.131	10.112	19.599
5644.169	8.930	10.103	19.542
5645.469	9.619	10.064	20.575
5646.769	9.556	10.083	21.063
5648.069	11.098	10.086	20.724
5649.370	9.658	10.074	20.688
5650.671	9.224	10.080	20.152
5651.972	10.147	10.110	19.825
5653.274	8.690	10.152	19.957
5654.575	8.028	10.190	20.180
5655.878	9.593	10.218	20.199
5657.180	9.938	10.198	19.839
5658.483	9.649	10.187	19.796
5659.786	11.433	10.165	18.970
5661.089	10.148	10.094	18.566
5662.393	12.222	10.005	19.614
5663.697	10.565	9.913	20.064
5665.001	10.447	9.786	20.117
5666.306	10.660	9.713	20.290
5667.611	9.754	9.689	20.406
5668.916	9.926	9.680	20.449
5670.221	10.188	9.723	20.886
5671.527	10.819	9.801	21.495
5672.833	10.448	9.875	22.092
5674.139	10.450	9.929	22.301
5675.446	9.899	9.929	22.221
5676.753	9.070	9.889	21.277
5678.060	9.519	9.882	20.696
5679.368	9.293	9.853	21.230
5680.676	9.599	9.870	21.197
5681.984	10.232	9.948	21.821
5683.292	9.567	10.071	23.174
5684.601	7.943	10.197	24.265
5685.910	9.998	10.289	25.058
5687.220	10.243	10.375	25.645
5688.529	9.588	10.357	26.439
5689.839	9.221	10.324	27.346
5691.150	9.676	10.278	27.499
5692.460	10.179	10.166	26.405
5693.771	10.360	10.010	25.568
5695.082	8.754	9.925	24.375
5696.394	9.336	9.917	23.103
5697.706	10.163	9.966	22.210
5699.018	10.834	10.012	21.818
5700.330	10.192	10.019	21.608
5701.643	9.859	10.007	21.333
5702.956	7.741	9.950	21.036
5704.269	9.086	9.950	20.589
5705.583	9.731	9.991	20.741
5706.897	9.334	10.063	19.840
5708.211	10.300	10.151	19.432
5709.525	11.792	10.194	19.042
5710.840	10.968	10.213	18.678
5712.155	11.909	10.198	19.149
5713.471	10.143	10.158	19.551
5714.786	9.863	10.112	19.996
5716.102	11.247	10.070	19.897
5717.419	10.439	10.020	20.029
5718.735	9.862	10.005	20.062
5720.052	10.416	10.018	19.782
5721.370	10.426	10.049	19.925
5722.687	8.895	10.079	19.893
5724.005	10.957	10.097	20.166
5725.323	10.959	10.114	20.157
5726.642	11.918	10.122	20.435
5727.960	11.248	10.190	20.281
5729.279	9.268	10.176	19.889
5730.599	10.973	10.127	20.088
5731.918	10.123	10.146	19.531
5733.238	12.957	10.147	19.250
5734.559	8.668	10.037	19.171
5735.879	11.672	10.009	19.412
5737.200	8.848	9.914	19.822
5738.521	9.831	9.805	19.588
5739.843	9.300	9.831	19.702
5741.165	9.963	9.924	19.559
5742.487	10.332	9.889	19.464
5743.809	9.559	9.970	19.727
5745.132	9.758	10.017	20.025
5746.455	10.076	10.015	20.067
5747.778	10.572	10.055	19.918
5749.102	10.074	10.108	19.467
5750.426	9.393	10.118	19.037
5751.750	8.502	10.215	19.235
5753.075	9.924	10.296	19.406
5754.399	9.392	10.304	19.116
5755.725	10.529	10.296	18.856
5757.050	10.920	10.332	18.828
5758.376	12.154	10.304	19.139
5759.702	10.015	10.252	19.512
5761.028	9.828	10.196	19.760
5762.355	11.807	10.142	19.551
5763.682	9.592	10.081	19.276
5765.009	11.055	10.014	19.044
5766.337	11.907	10.020	19.647
5767.665	9.925	10.040	21.195
5768.993	9.132	10.096	22.971
5770.321	12.277	10.163	25.267
5771.650	9.359	10.207	25.545
5772.979	9.933	10.248	23.340
5774.309	10.858	10.311	21.050
5775.638	11.414	10.296	20.312
5776.969	10.592	10.230	19.504
5778.299	9.042	10.149	19.803
5779.630	9.300	10.077	19.993
5780.960	9.442	10.039	19.359
5782.292	9.253	10.004	19.108
5783.623	9.581	9.965	18.866
5784.955	8.332	9.917	18.846
5786.287	8.304	9.852	18.813
5787.620	11.054	9.776	19.133
5788.953	10.274	9.727	19.976
5790.286	10.646	9.711	22.065
5791.619	9.297	9.781	24.534
5792.953	9.524	9.883	24.425
5794.287	10.207	9.987	22.474
5795.621	10.492	10.105	21.061
5796.956	10.425	10.219	20.605
5798.291	10.431	10.258	20.131
5799.626	10.442	10.337	20.103
5800.962	8.761	10.373	19.630
5802.298	13.086	10.389	19.106
5803.634	10.646	10.442	19.528
5804.970	10.744	10.474	19.401
5806.307	11.109	10.437	19.031
5807.644	11.455	10.397	19.198
5808.982	10.927	10.384	19.480
5810.319	10.038	10.372	19.267
5811.657	9.488	10.351	19.278
5812.996	9.812	10.356	19.420
5814.334	11.184	10.362	19.222
5815.673	9.022	10.392	19.292
5817.013	11.495	10.403	19.148
5818.352	11.090	10.405	19.235
5819.692	10.394	10.394	19.615
5821.032	12.087	10.326	19.485
5822.373	10.928	10.383	19.380
5823.713	11.051	10.357	19.519
5825.055	11.584	10.351	19.575
5826.396	10.229	10.379	19.833
5827.738	9.419	10.366	20.107
5829.080	10.452	10.322	19.683
5830.422	11.774	10.340	19.381
5831.765	10.336	10.315	19.863
5833.108	9.651	10.252	20.139
5834.451	8.859	10.204	20.106
5835.795	9.652	10.218	20.316
5837.139	10.024	10.288	20.280
5838.483	10.379	10.275	20.362
5839.827	9.679	10.281	20.443
5841.172	9.176	10.263	20.438
5842.517	10.567	10.202	20.437
5843.863	10.268	10.172	20.548
5845.208	11.007	10.270	20.182
5846.554	11.462	10.373	20.137
5847.901	10.820	10.388	20.018
5849.248	10.887	10.384	20.032
5850.595	9.833	10.391	20.233
5851.942	10.906	10.392	20.292
5853.289	11.263	10.373	20.135
5854.637	10.166	10.286	19.867
5855.986	9.718	10.291	19.781
5857.334	10.078	10.286	19.992
5858.683	10.524	10.234	19.649
5860.032	9.466	10.153	19.573
5861.382	9.869	10.022	19.875
5862.731	10.102	9.921	19.959
5864.082	10.964	9.852	20.156
5865.432	9.878	9.837	21.698
5866.783	9.277	9.883	24.196
5868.134	9.682	9.965	26.268
5869.485	9.075	10.036	26.505
5870.837	9.158	10.097	24.749
5872.189	10.213	10.151	22.372
5873.541	9.861	10.205	21.433
5874.894	10.784	10.261	21.328
5876.246	10.358	10.304	21.159
5877.600	11.210	10.321	20.436
5878.953	9.996	10.345	19.734
5880.307	10.405	10.398	19.111
5881.661	9.851	10.453	18.938
5883.016	10.385	10.479	18.913
5884.370	10.961	10.461	18.962
5885.725	10.182	10.415	19.173
5887.081	10.401	10.394	20.289
5888.437	11.548	10.375	26.077
5889.793	10.781	10.360	46.512
5891.149	11.007	10.361	73.962
5892.506	7.856	10.370	69.853
5893.863	9.909	10.356	42.103
5895.220	12.423	10.317	32.020
5896.577	11.574	10.284	49.949
5897.935	11.061	10.326	56.638
5899.293	10.255	10.373	43.210
5900.652	9.845	10.383	26.195
5902.011	10.197	10.464	19.924
5903.370	9.557	10.477	19.918
5904.729	10.895	10.482	20.493
5906.089	9.612	10.475	20.642
5907.449	11.109	10.454	20.794
5908.810	10.332	10.448	20.882
5910.170	10.439	10.480	20.264
5911.531	9.860	10.462	19.740
5912.893	9.475	10.450	19.618
5914.254	10.125	10.464	20.311
5915.616	10.574	10.444	22.852
5916.979	11.194	10.380	25.213
5918.341	11.266	10.378	23.919
5919.704	9.665	10.383	21.153
5921.067	10.346	10.442	20.225
5922.431	10.376	10.442	20.139
5923.795	10.867	10.413	20.461
5925.159	9.896	10.420	21.754
5926.523	10.321	10.389	22.805
5927.888	9.922	10.361	22.144
5929.253	9.131	10.311	20.949
5930.619	9.317	10.259	20.434
5931.984	9.806	10.214	21.240
5933.350	9.718	10.170	24.586
5934.717	9.880	10.114	27.199
5936.083	10.727	10.017	25.491
5937.450	10.039	9.976	21.410
5938.818	9.378	9.949	21.051
5940.185	9.000	9.929	20.747
5941.553	9.148	9.931	20.093
5942.922	10.857	9.941	20.124
5944.290	10.564	10.005	20.258
5945.659	9.074	10.001	21.263
5947.028	8.987	10.008	22.436
5948.398	9.961	10.037	22.063
5949.768	10.465	10.061	20.702
5951.138	10.559	10.124	19.952
5952.508	11.815	10.163	20.942
5953.879	11.566	10.232	23.765
5955.250	9.840	10.272	25.621
5956.621	10.405	10.312	23.803
5957.993	11.626	10.371	20.571
5959.365	11.044	10.323	19.495
5960.738	10.657	10.152	19.640
5962.110	10.794	10.034	19.921
5963.483	10.086	9.945	20.162
5964.856	9.594	9.841	20.280
5966.230	10.127	9.719	20.054
5967.604	10.127	9.578	19.711
5968.978	10.550	9.354	19.753
5970.353	10.868	9.086	20.458
5971.728	10.580	8.807	21.210
5973.103	9.049	8.579	21.064
5974.478	10.101	8.493	20.247
5975.854	9.392	8.569	19.967
5977.230	9.021	8.598	20.952
5978.607	9.450	8.651	22.067
5979.984	9.421	8.802	21.379
5981.361	8.795	9.020	20.291
5982.738	8.513	9.247	19.879
5984.116	9.489	9.479	19.302
5985.494	9.016	9.672	18.982
5986.872	9.747	9.752	18.681
5988.251	10.585	9.833	18.895
5989.630	10.053	9.915	18.601
5991.009	9.439	9.943	18.993
5992.389	10.160	9.958	19.204
5993.769	11.210	9.965	18.808
5995.149	11.090	9.957	18.983
5996.530	10.910	9.937	19.171
5997.911	9.902	9.900	19.267
5999.292	8.468	9.872	19.480
6000.674	10.408	9.907	19.345
6002.055	7.951	9.933	18.971
6003.438	9.226	9.975	18.959
6004.820	9.871	10.009	19.766
6006.203	11.305	10.034	20.076
6007.586	10.021	10.053	19.102
6008.970	9.339	10.034	18.081
6010.353	10.509	10.010	17.912
6011.737	10.190	9.984	18.216
6013.122	9.280	9.985	18.163
6014.507	9.492	9.990	17.860
6015.892	9.748	9.977	17.928
6017.277	10.316	9.994	17.758
6018.663	11.088	10.016	17.814
6020.049	10.022	10.002	17.652
6021.435	10.683	10.051	17.596
6022.822	10.096	10.085	17.597
6024.209	11.179	10.026	17.566
6025.596	9.188	10.025	17.713
6026.983	9.495	10.070	17.471
6028.371	8.882	10.081	17.839
6029.760	9.380	10.069	18.430
6031.148	10.694	10.049	18.321
6032.537	9.079	10.020	18.360
6033.926	9.527	9.988	18.593
6035.316	10.872	9.985	18.471
6036.706	10.030	9.976	18.950
6038.096	10.166	9.947	18.519
6039.486	9.624	9.939	18.101
6040.877	11.229	9.971	17.922
6042.268	11.412	9.997	17.712
6043.660	10.663	10.036	17.541
6045.051	10.207	10.052	17.343
6046.444	10.673	10.067	17.445
6047.836	10.498	10.112	17.529
6049.229	9.516	10.151	17.513
6050.622	9.962	10.106	17.458
6052.015	9.926	10.162	17.520
6053.409	10.994	10.172	17.494
6054.803	9.511	10.135	17.483
6056.197	10.722	10.139	17.030
6057.592	10.458	10.167	16.971
6058.987	9.271	10.069	17.113
6060.382	9.546	10.018	17.124
6061.778	9.309	9.986	17.476
6063.174	9.672	9.978	17.696
6064.570	10.265	9.970	17.273
6065.966	10.169	9.941	17.045
6067.363	10.200	9.924	16.962
6068.761	9.806	9.939	17.124
6070.158	10.363	9.924	17.601
6071.556	10.641	9.943	17.401
6072.954	9.872	10.001	17.070
6074.353	9.684	10.046	16.935
6075.751	9.407	10.059	17.369
6077.151	9.885	10.070	17.182
6078.550	9.981	10.068	16.840
6079.950	10.657	10.059	16.613
6081.350	11.255	10.038	16.561
6082.750	10.804	10.002	16.497
6084.151	10.009	9.988	16.580
6085.552	9.652	10.013	16.691
6086.954	10.246	9.949	16.630
6088.355	10.380	9.907	16.562
6089.758	9.286	9.896	16.634
6091.160	10.407	9.864	16.187
6092.563	9.360	9.856	16.463
6093.966	10.210	9.862	16.492
6095.369	10.935	9.892	16.623
6096.773	10.152	9.878	16.762
6098.177	9.770	9.857	16.657
6099.581	9.894	9.879	16.645
6100.986	10.066	9.875	16.449
6102.391	10.299	9.862	16.263
6103.796	9.966	9.824	15.790
6105.201	9.871	9.819	15.900
6106.607	10.485	9.855	16.743
6108.014	9.569	9.905	16.892
6109.420	10.260	9.967	16.567
6110.827	9.603	10.026	16.694
6112.234	9.365	10.051	16.596
6113.642	10.446	10.094	16.302
6115.050	10.764	10.144	16.422
6116.458	10.364	10.164	16.573
6117.867	10.643	10.180	16.364
6119.275	10.470	10.183	16.021
6120.685	10.244	10.226	15.759
6122.094	11.009	10.244	16.199
6123.504	8.888	10.228	15.834
6124.914	10.004	10.216	15.319
6126.325	10.645	10.205	15.722
6127.735	10.712	10.213	16.082
6129.146	11.238	10.237	16.002
6130.558	10.285	10.255	15.886
6131.970	10.457	10.270	15.788
6133.382	9.681	10.290	15.709
6134.794	10.163	10.290	15.673
6136.207	10.282	10.253	15.968
6137.620	9.389	10.207	16.016
6139.033	10.549	10.174	16.198
6140.447	10.495	10.142	16.689
6141.861	10.226	10.110	16.924
6143.276	10.553	10.118	16.734
6144.690	10.491	10.133	17.115
6146.105	10.010	10.117	17.483
6147.521	9.691	10.086	17.241
6148.936	9.652	10.061	16.414
6150.352	10.051	10.056	15.964
6151.769	9.369	10.091	16.195
6153.185	9.118	10.176	16.732
6154.602	10.518	10.210	16.862
6156.020	11.116	10.293	16.741
6157.437	10.096	10.344	16.958
6158.855	10.293	10.282	16.801
6160.274	11.012	10.292	16.468
6161.692	10.895	10.253	17.216
6163.111	9.042	10.148	16.662
6164.530	9.874	10.098	16.663
6165.950	8.733	10.082	15.960
6167.370	9.321	10.034	15.435
6168.790	9.032	10.013	15.593
6170.211	9.279	10.018	16.456
6171.632	9.524	9.976	17.831
6173.053	8.869	9.959	17.935
6174.474	9.624	9.973	16.748
6175.896	10.938	9.963	15.749
6177.319	9.836	9.948	15.965
6178.741	9.572	9.994	16.070
6180.164	8.756	9.991	16.142
6181.587	10.468	10.013	15.407
6183.011	10.359	10.059	15.374
6184.435	9.880	10.056	16.054
6185.859	9.679	9.989	16.019
6187.283	9.562	9.907	15.717
6188.708	8.815	9.848	15.490
6190.133	9.080	9.858	15.555
6191.559	10.502	9.918	15.366
6192.985	10.611	9.977	15.185
6194.411	9.152	10.026	15.725
6195.837	9.002	10.052	15.785
6197.264	10.181	10.120	15.434
6198.691	9.341	10.119	15.266
6200.119	10.035	10.074	15.519
6201.546	9.310	10.069	15.886
6202.975	8.713	10.037	16.928
6204.403	10.440	9.965	17.741
6205.832	9.441	9.907	17.647
6207.261	9.255	9.837	15.916
6208.690	9.523	9.792	15.403
6210.120	10.792	9.817	15.782
6211.550	10.749	9.865	15.672
6212.981	9.667	9.930	16.146
6214.411	9.921	9.928	16.311
6215.842	9.768	9.932	15.741
6217.274	8.704	9.952	15.466
6218.706	9.753	9.928	15.144
6220.138	10.043	9.846	15.239
6221.570	10.070	9.764	16.003
6223.003	9.931	9.685	17.673
6224.436	5.552	9.647	17.977
6225.869	9.480	9.693	15.953
6227.303	10.213	9.805	15.064
6228.737	10.202	9.883	14.738
6230.171	9.965	9.930	14.491
6231.606	9.037	9.992	14.665
6233.041	8.581	10.003	15.298
6234.477	8.984	9.956	17.648
6235.912	9.674	9.906	22.466
6237.348	9.457	9.876	26.838
6238.785	10.675	9.847	24.514
6240.221	9.063	9.823	20.589
6241.658	10.326	9.763	18.342
6243.096	10.433	9.666	18.665
6244.534	9.592	9.557	18.581
6245.972	9.680	9.442	17.316
6247.410	9.026	9.307	15.893
6248.849	8.730	9.201	15.492
6250.288	9.303	9.201	15.554
6251.727	8.847	9.247	15.463
6253.167	8.493	9.265	15.062
6254.607	9.223	9.322	14.303
6256.047	9.399	9.361	14.709
6257.488	9.446	9.417	18.261
6258.929	9.168	9.490	24.381
6260.370	9.818	9.533	25.480
6261.812	9.834	9.551	21.781
6263.254	10.450	9.645	16.890
6264.696	9.582	9.667	16.870
6266.139	10.140	9.691	18.147
6267.582	10.259	9.737	18.534
6269.025	9.896	9.778	17.696
6270.469	9.976	9.763	16.360
6271.913	10.851	9.667	15.462
6273.357	10.346	9.607	15.122
6274.802	9.430	9.545	15.275
6276.247	10.640	9.479	15.815
6277.692	10.770	9.424	16.435
6279.138	9.707	9.415	17.076
6280.584	11.521	9.483	16.023
6282.030	9.376	9.552	14.970
6283.477	10.026	9.606	14.531
6284.924	9.702	9.626	14.774
6286.371	9.087	9.635	15.791
6287.819	9.500	9.660	20.316
6289.267	10.647	9.677	23.138
6290.715	10.118	9.705	21.724
6292.164	9.393	9.724	17.814
6293.613	9.969	9.748	14.983
6295.062	10.163	9.743	14.587
6296.511	9.778	9.680	15.217
6297.961	9.825	9.607	17.273
6299.412	9.072	9.479	23.956
6300.862	9.225	9.403	42.451
6302.313	10.746	9.342	45.642
6303.765	9.715	9.300	35.636
6305.216	9.284	9.301	20.464
6306.668	10.156	9.288	19.704
6308.121	9.548	9.301	25.461
6309.573	9.315	9.344	25.433
6311.026	9.412	9.372	20.041
6312.480	10.116	9.392	15.515
6313.933	9.614	9.395	14.263
6315.387	9.081	9.312	14.238
6316.842	9.474	9.267	13.924
6318.296	9.447	9.213	13.747
6319.751	9.225	9.219	13.998
6321.207	9.167	9.285	15.363
6322.662	10.184	9.345	17.510
6324.119	9.761	9.379	17.877
6325.575	9.921	9.329	16.031
6327.032	8.571	9.276	14.658
6328.489	10.273	9.244	15.040
6329.946	8.915	9.209	19.220
6331.404	8.930	9.166	22.613
6332.862	8.775	9.168	21.795
6334.320	9.146	9.229	17.643
6335.779	9.640	9.259	14.280
6337.238	9.782	9.292	13.693
6338.697	9.378	9.298	13.614
6340.157	9.021	9.220	13.785
6341.617	9.638	9.128	13.901
6343.077	8.963	9.104	14.182
6344.538	8.897	9.103	14.465
6345.999	9.614	9.125	14.154
6347.460	9.508	9.160	14.285
6348.922	9.611	9.208	15.738
6350.384	9.616	9.318	16.333
6351.847	9.837	9.406	15.985
6353.309	9.929	9.443	14.879
6354.772	8.971	9.459	14.600
6356.236	9.874	9.476	16.550
6357.700	9.467	9.496	18.880
6359.164	8.115	9.516	19.024
6360.628	8.927	9.525	16.513
6362.093	9.655	9.573	14.808
6363.558	8.373	9.569	17.753
6365.023	8.771	9.543	22.809
6366.489	10.365	9.553	23.213
6367.955	8.793	9.512	18.538
6369.422	9.796	9.486	14.612
6370.888	10.139	9.519	13.873
6372.356	10.491	9.561	13.960
6373.823	9.544	9.611	13.649
6375.291	9.683	9.668	13.990
6376.759	10.165	9.650	14.105
6378.227	9.387	9.652	14.422
6379.696	9.469	9.644	14.991
6381.165	10.719	9.631	15.283
6382.635	10.698	9.597	15.063
6384.105	9.582	9.547	14.582
6385.575	9.236	9.562	14.631
6387.045	9.317	9.640	16.247
6388.516	9.747	9.721	16.698
6389.987	10.270	9.699	15.920
6391.459	9.795	9.605	14.118
6392.931	9.758	9.561	13.584
6394.403	9.661	9.593	13.414
6395.875	10.059	9.576	13.368
6397.348	9.788	9.609	13.607
6398.822	9.979	9.625	13.668
6400.295	9.749	9.580	13.410
6401.769	9.023	9.517	13.282
6403.243	9.578	9.492	13.468
6404.718	10.194	9.398	13.908
6406.193	9.056	9.384	13.914
6407.668	8.773	9.393	13.422
6409.144	9.921	9.416	13.088
6410.619	9.562	9.495	13.083
6412.096	9.493	9.573	13.106
6413.572	9.676	9.618	13.352
6415.049	9.551	9.677	14.038
6416.527	10.234	9.722	14.266
6418.004	9.627	9.722	13.636
6419.482	10.780	9.693	13.613
6420.961	10.125	9.690	14.249
6422.439	9.274	9.622	14.124
6423.918	9.124	9.562	14.099
6425.398	9.134	9.534	13.367
6426.877	9.475	9.536	13.383
6428.357	9.507	9.564	13.759
6429.838	8.821	9.593	13.684
6431.318	8.801	9.560	13.246
6432.799	9.526	9.564	12.874
6434.281	8.966	9.559	13.028
6435.762	8.361	9.570	13.374
6437.244	9.737	9.639	13.414
6438.727	10.065	9.675	13.368
6440.210	9.394	9.667	13.065
6441.693	9.705	9.660	12.968
6443.176	10.223	9.609	12.967
6444.660	9.657	9.540	13.412
6446.144	10.337	9.483	13.387
6447.628	9.021	9.371	13.222
6449.113	8.912	9.333	13.054
6450.598	9.584	9.348	13.000
6452.084	9.350	9.373	13.183
6453.570	9.319	9.415	13.665
6455.056	10.383	9.500	13.603
6456.542	10.250	9.597	13.426
6458.029	9.274	9.635	13.422
6459.516	9.773	9.688	13.713
6461.004	9.417	9.741	13.946
6462.492	9.312	9.773	13.764
6463.980	9.244	9.786	14.840
6465.468	9.417	9.777	17.156
6466.957	10.431	9.767	19.970
6468.447	9.958	9.746	19.160
6469.936	10.572	9.742	17.282
6471.426	10.015	9.751	17.968
6472.916	10.711	9.753	18.879
6474.407	10.768	9.759	17.062
6475.898	9.710	9.739	14.266
6477.389	9.646	9.761	13.629
6478.881	9.995	9.759	14.284
6480.373	9.300	9.719	14.607
6481.865	9.375	9.671	13.855
6483.358	9.973	9.607	12.782
6484.851	9.514	9.632	12.568
6486.344	9.824	9.625	12.736
6487.838	9.335	9.600	12.945
6489.332	9.819	9.592	12.393
6490.826	9.175	9.609	12.489
6492.321	10.201	9.658	12.754
6493.816	9.228	9.709	12.798
6495.312	9.030	9.715	12.393
6496.808	9.954	9.679	12.219
6498.304	9.557	9.628	16.658
6499.800	10.485	9.595	23.118
6501.297	9.664	9.591	24.427
6502.794	10.055	9.615	19.025
6504.292	10.316	9.613	15.169
6505.789	9.935	9.600	15.967
6507.288	10.185	9.600	16.706
6508.786	10.476	9.606	15.390
6510.285	9.737	9.588	13.412
6511.784	8.601	9.610	12.842
6513.284	9.362	9.659	12.885
6514.784	10.350	9.705	13.455
6516.284	8.837	9.721	13.996
6517.785	10.649	9.706	13.286
6519.285	10.314	9.695	12.483
6520.787	10.621	9.630	12.456
6522.288	8.628	9.635	13.534
6523.790	9.898	9.640	15.012
6525.293	9.627	9.638	15.337
6526.795	9.796	9.666	13.937
6528.298	9.026	9.659	13.050
6529.802	9.083	9.696	12.609
6531.306	9.130	9.723	13.088
6532.810	9.574	9.760	16.572
6534.314	10.254	9.784	20.974
6535.819	10.295	9.767	21.193
6537.324	10.354	9.754	17.205
6538.829	9.775	9.628	12.472
6540.335	8.583	9.529	12.426
6541.841	8.906	9.510	12.806
6543.348	9.014	9.550	13.554
6544.855	9.425	9.601	15.519
6546.362	9.822	9.630	16.196
6547.869	9.303	9.699	15.129
6549.377	9.630	9.730	12.949
6550.885	8.759	9.703	12.607
6552.394	8.968	9.651	13.874
6553.903	9.878	9.630	19.057
6555.412	8.020	9.687	23.191
6556.922	9.458	9.734	20.706
6558.432	10.679	9.742	14.975
6559.942	10.989	9.771	11.684
6561.453	10.041	9.807	11.260
6562.964	9.334	9.798	11.576
6564.475	9.871	9.779	11.720
6565.987	9.410	9.784	11.615
6567.499	9.009	9.816	11.606
6569.011	10.112	9.794	13.049
6570.524	10.124	9.729	14.453
6572.037	9.213	9.701	14.385
6573.550	8.353	9.711	12.630
6575.064	9.596	9.674	12.428
6576.578	9.657	9.655	13.802
6578.093	9.613	9.658	19.226
6579.608	9.723	9.632	21.179
6581.123	8.882	9.545	17.475
6582.638	9.415	9.430	13.288
6584.154	9.219	9.277	12.525
6585.671	8.120	9.122	12.366
6587.187	8.041	9.057	12.279
6588.704	7.813	9.095	12.234
6590.221	8.375	9.182	12.216
6591.739	9.116	9.285	12.405
6593.257	9.096	9.429	12.347
6594.775	9.058	9.535	12.163
6596.294	9.584	9.611	12.514
6597.813	10.090	9.664	13.993
6599.332	8.783	9.683	14.312
6600.852	9.044	9.677	13.132
6602.372	9.185	9.687	12.540
6603.893	10.555	9.686	13.805
6605.413	10.126	9.697	16.631
6606.934	10.452	9.695	16.571
6608.456	9.102	9.658	13.996
6609.978	10.443	9.662	12.182
6611.500	8.515	9.655	11.969
6613.022	9.093	9.691	12.005
6614.545	9.201	9.740	12.235
6616.069	8.702	9.755	12.141
6617.592	9.110	9.731	12.159
6619.116	9.540	9.712	12.013
6620.640	9.322	9.716	12.076
6622.165	9.310	9.720	11.981
6623.690	9.865	9.715	11.957
6625.215	9.468	9.730	12.059
6626.741	8.925	9.771	12.110
6628.267	9.926	9.768	12.714
6629.793	10.119	9.820	13.006
6631.320	10.465	9.840	12.931
6632.847	9.702	9.813	12.246
6634.375	10.311	9.792	12.977
6635.903	9.443	9.832	13.974
6637.431	9.988	9.947	13.418
6638.959	10.744	10.198	12.502
6640.488	10.965	10.251	12.039
6642.017	10.583	10.057	12.027
6643.547	9.994	9.761	11.786
6645.077	9.592	9.521	11.732
6646.607	9.419	9.381	11.949
6648.138	9.309	9.316	11.818
6649.669	9.864	9.330	11.800
6651.200	9.620	10.098	11.881
6652.732	9.691	12.092	12.077
6654.264	13.662	14.569	12.172
6655.796	15.920	15.207	11.879
6657.329	12.634	13.030	11.813
6658.862	9.970	10.677	11.748
6660.395	9.373	9.529	11.806
6661.929	9.415	9.328	12.336
6663.463	9.448	9.304	12.281
6664.998	8.663	9.348	12.025
6666.532	8.857	9.351	11.937
6668.068	9.515	9.399	12.190
6669.603	9.891	9.534	12.791
6671.139	10.233	9.797	12.609
6672.675	9.969	10.291	12.076
6674.212	11.557	11.101	11.874
6675.749	13.706	11.810	11.626
6677.286	13.371	11.624	11.651
6678.824	10.754	10.882	11.708
6680.362	9.137	10.198	11.560
6681.900	9.594	9.837	11.564
6683.439	9.908	9.597	11.569
6684.978	8.774	9.515	11.651
6686.518	7.998	9.418	12.046
6688.058	9.118	9.419	11.905
6689.598	9.494	9.509	11.874
6691.138	9.068	9.551	11.837
6692.679	9.478	9.554	11.766
6694.220	9.264	9.610	11.719
6695.762	10.238	9.583	11.770
6697.304	9.346	9.550	11.757
6698.846	9.096	9.546	11.665
6700.389	10.253	9.513	11.807
6701.932	8.901	9.462	12.102
6703.475	9.299	9.537	12.126
6705.019	8.667	9.575	12.059
6706.563	9.179	9.596	12.058
6708.107	9.868	9.637	12.142
6709.652	9.900	9.670	12.386
6711.197	10.811	9.659	12.073
6712.743	10.127	9.658	11.790
6714.289	9.857	9.618	11.437
6715.835	9.841	9.561	11.604
6717.381	9.654	9.532	11.877
6718.928	9.921	9.535	11.916
6720.475	9.419	9.517	11.686
6722.023	9.993	9.468	11.542
6723.571	9.917	9.444	11.466
6725.119	9.228	9.397	11.367
6726.668	9.769	9.367	11.340
6728.217	9.177	9.411	11.367
6729.767	9.795	9.413	11.365
6731.316	9.956	9.461	11.584
6732.866	9.861	9.464	11.967
6734.417	9.155	9.465	11.562
6735.968	9.495	9.474	11.386
6737.519	9.952	9.453	11.254
6739.071	10.299	9.449	11.444
6740.622	9.687	9.474	11.682
6742.175	9.233	9.497	11.557
6743.727	9.971	9.472	11.832
6745.280	8.575	9.451	11.725
6746.834	9.408	9.481	11.586
6748.387	8.966	9.448	11.730
6749.941	9.735	9.386	11.281
6751.496	9.420	9.415	11.128
6753.051	9.546	9.387	11.176
6754.606	10.171	9.314	11.082
6756.161	9.852	9.320	11.103
6757.717	8.668	9.310	11.207
6759.273	8.912	9.288	11.059
6760.830	9.127	9.314	11.227
6762.387	8.973	9.345	11.448
6763.944	9.485	9.377	11.234
6765.502	8.927	9.440	11.135
6767.060	9.188	9.479	10.887
6768.618	9.980	9.386	10.893
6770.177	9.215	9.360	11.017
6771.736	9.448	9.344	11.068
6773.295	9.476	9.331	11.127
6774.855	9.803	9.357	10.849
6776.415	10.039	9.324	11.067
6777.976	9.530	9.359	11.110
6779.536	9.626	9.413	11.220
6781.098	9.076	9.392	11.128
6782.659	9.530	9.369	11.059
6784.221	9.870	9.427	11.036
6785.784	9.938	9.401	11.011
6787.346	9.305	9.380	10.955
6788.909	9.440	9.327	11.200
6790.473	9.070	9.290	11.177
6792.036	9.485	9.293	10.920
6793.600	9.433	9.304	10.872
6795.165	8.912	9.298	10.927
6796.730	9.656	9.318	10.713
6798.295	9.680	9.333	10.868
6799.860	8.743	9.363	10.966
6801.426	8.726	9.365	11.004
6802.993	9.161	9.306	11.115
6804.559	9.201	9.315	11.099
6806.126	9.563	9.406	10.910
6807.694	9.994	9.701	11.000
6809.261	10.418	10.230	11.146
6810.829	12.599	10.633	10.788
6812.398	11.310	10.461	11.035
6813.967	9.837	9.850	11.011
6815.536	9.982	9.416	10.643
6817.105	9.770	9.319	10.810
6818.675	9.523	9.340	10.792
6820.245	9.290	9.376	10.948
6821.816	9.421	9.529	10.859
6823.387	10.182	9.894	11.058
6824.958	11.850	10.327	10.703
6826.530	11.219	10.276	11.851
6828.102	11.030	9.893	16.253
6829.674	9.474	9.518	25.245
6831.247	8.683	9.323	29.305
6832.820	9.041	9.256	25.630
6834.394	8.983	9.216	24.375
6835.968	8.597	9.196	26.862
6837.542	9.130	9.190	24.222
6839.116	8.654	9.176	16.374
6840.691	8.481	9.155	12.392
6842.267	9.341	9.166	13.718
6843.842	9.994	9.144	14.734
6845.418	9.998	9.136	13.635
6846.995	9.592	9.162	11.633
6848.572	9.310	9.193	10.739
6850.149	9.483	9.205	10.923
6851.726	9.730	9.250	11.205
6853.304	8.864	9.295	11.258
6854.882	9.467	9.308	10.908
6856.461	10.406	9.320	10.558
6858.040	10.300	9.317	10.544
6859.619	9.295	9.275	10.509
6861.199	8.887	9.258	10.692
6862.779	9.147	9.209	14.378
6864.359	10.751	9.186	29.513
6865.940	9.982	9.226	40.880
6867.521	10.138	9.270	34.075
6869.103	9.267	9.278	16.679
6870.684	9.986	9.359	13.281
6872.267	8.647	9.373	15.188
6873.849	9.455	9.337	15.158
6875.432	9.697	9.313	12.157
6877.015	9.934	9.287	10.496
6878.599	9.383	9.226	10.330
6880.183	9.365	9.193	11.182
6881.768	9.076	9.159	13.176
6883.352	8.435	9.192	14.444
6884.937	9.206	9.228	13.200
6886.523	9.434	9.213	11.519
6888.109	9.037	9.185	11.907
6889.695	9.123	9.220	14.967
6891.282	9.676	9.232	17.266
6892.869	9.480	9.213	15.943
6894.456	8.928	9.234	12.580
6896.044	9.463	9.278	11.212
6897.632	10.176	9.270	11.043
6899.220	9.716	9.240	11.162
6900.809	9.240	9.237	13.514
6902.398	10.896	9.282	17.242
6903.988	9.460	9.262	17.022
6905.577	9.215	9.230	13.038
6907.168	8.482	9.277	10.835
6908.758	9.118	9.227	10.440
6910.349	9.324	9.219	10.387
6911.941	8.437	9.204	12.518
6913.532	10.488	9.251	17.894
6915.124	10.917	9.320	20.034
6916.717	8.891	9.304	15.508
6918.310	9.383	9.289	10.480
6919.903	9.360	9.323	10.298
6921.496	9.948	9.291	10.799
6923.090	9.426	9.284	17.680
6924.685	9.796	9.312	27.145
6926.279	9.598	9.295	26.471
6927.874	8.309	9.280	16.144
6929.470	9.810	9.288	11.149
6931.065	9.506	9.259	10.488
6932.662	10.138	9.215	10.328
6934.258	8.895	9.175	10.190
6935.855	9.542	9.134	10.387
6937.452	9.944	9.098	10.429
6939.050	8.753	9.094	13.078
6940.648	9.712	9.141	17.446
6942.246	10.440	9.188	18.260
6943.845	9.380	9.208	14.557
6945.444	8.811	9.213	11.184
6947.043	9.555	9.216	11.121
6948.643	9.723	9.251	16.860
6950.243	9.137	9.212	26.866
6951.844	9.008	9.147	29.002
6953.445	8.707	9.105	20.301
6955.046	8.859	9.093	11.821
6956.648	8.504	9.132	10.916
6958.250	8.612	9.155	10.947
6959.852	8.596	9.196	10.740
6961.455	8.685	9.256	10.649
6963.058	9.093	9.297	10.474
6964.661	9.370	9.305	10.403
6966.265	9.401	9.331	10.551
6967.869	9.129	9.303	10.790
6969.474	8.926	9.292	12.228
6971.079	8.753	9.287	15.304
6972.684	8.900	9.275	15.488
6974.290	8.957	9.269	12.778
6975.896	9.730	9.261	10.561
6977.502	8.521	9.261	12.072
6979.109	8.867	9.279	18.542
6980.716	8.528	9.246	21.854
6982.324	9.658	9.240	17.825
6983.932	9.787	9.351	11.618
6985.540	9.211	9.372	10.935
6987.149	9.154	9.387	10.579
6988.758	9.708	9.387	10.561
6990.367	9.593	9.373	10.714
6991.977	9.607	9.394	10.420
6993.587	8.754	9.445	10.247
6995.198	8.811	9.383	10.232
6996.809	9.114	9.351	10.461
6998.420	9.570	9.407	10.659
7000.032	9.087	9.420	10.568
7001.644	9.321	9.399	10.499
7003.256	9.901	9.432	11.067
7004.869	9.999	9.401	12.317
7006.482	10.435	9.374	12.756
7008.095	10.056	9.357	11.243
7009.709	9.091	9.334	10.364
7011.323	9.254	9.305	12.357
7012.938	9.356	9.287	15.297
7014.553	8.490	9.288	14.994
7016.168	8.824	9.273	11.876
7017.784	9.434	9.290	9.680
7019.400	9.107	9.289	9.461
7021.017	9.428	9.263	9.790
7022.633	9.434	9.244	10.139
7024.251	9.181	9.199	9.565
7025.868	9.014	9.286	9.507
7027.486	9.425	9.298	9.685
7029.105	9.798	9.263	9.940
7030.723	9.233	9.268	9.955
7032.342	9.675	9.319	10.145
7033.962	9.757	9.368	10.135
7035.582	9.348	9.361	10.020
7037.202	9.012	9.352	9.957
7038.822	9.706	9.361	9.638
7040.443	9.362	9.343	9.974
7042.065	9.419	9.283	11.086
7043.686	8.746	9.282	11.713
7045.308	8.996	9.301	11.075
7046.931	8.837	9.280	11.084
7048.553	8.472	9.248	12.988
7050.177	9.320	9.244	14.490
7051.800	9.486	9.290	13.362
7053.424	9.530	9.379	11.608
7055.048	9.479	9.362	11.178
7056.673	9.516	9.312	10.584
7058.298	8.548	9.334	10.231
7059.924	9.907	9.394	10.137
7061.549	9.643	9.402	10.186
7063.176	9.277	9.412	10.503
7064.802	9.175	9.397	10.829
7066.429	9.085	9.386	10.940
7068.056	9.146	9.390	10.896
7069.684	9.354	9.388	10.741
7071.312	9.741	9.347	10.650
7072.940	9.770	9.269	10.751
7074.569	9.512	9.205	10.588
7076.198	9.787	9.166	10.464
7077.828	9.253	9.164	10.588
7079.458	9.468	9.210	10.431
7081.088	9.562	9.292	10.476
7082.719	9.824	9.360	10.768
7084.350	9.813	9.395	11.168
7085.981	9.318	9.371	10.876
7087.613	10.207	9.394	10.400
7089.245	9.990	9.439	11.136
7090.878	8.942	9.398	11.718
7092.511	9.321	9.364	11.031
7094.144	9.741	9.327	10.305
7095.778	9.351	9.331	10.182
7097.412	9.327	9.320	9.848
7099.046	9.498	9.289	9.857
7100.681	9.814	9.276	9.859
7102.316	8.959	9.244	9.885
7103.952	8.473	9.235	10.027
7105.588	9.369	9.252	9.905
7107.224	9.561	9.241	10.058
7108.861	10.213	9.234	9.918
7110.498	9.420	9.262	9.920
7112.135	9.197	9.199	9.864
7113.773	9.371	9.214	9.619
7115.411	8.585	9.192	9.767
7117.050	9.039	9.186	9.687
7118.689	9.467	9.232	9.759
7120.328	9.698	9.269	9.544
7121.968	9.000	9.262	9.598
7123.608	8.932	9.268	9.635
7125.248	9.315	9.272	9.635
7126.889	8.992	9.292	10.157
7128.530	8.615	9.324	10.329
7130.172	9.059	9.336	10.754
7131.814	9.235	9.332	10.164
7133.456	9.851	9.327	10.311
7135.099	9.248	9.296	10.415
7136.742	8.761	9.309	10.381
7138.386	8.928	9.384	9.696
7140.029	8.307	9.453	9.653
7141.674	10.048	9.477	9.957
7143.318	9.265	9.513	10.657
7144.963	9.277	9.528	11.366
7146.609	9.789	9.510	11.453
7148.254	9.601	9.469	11.500
7149.901	8.794	9.410	10.744
7151.547	9.250	9.310	10.329
7153.194	8.811	9.188	10.001
7154.841	8.017	9.074	9.986
7156.489	8.786	9.022	9.706
7158.137	9.148	8.985	10.023
7159.785	8.981	8.907	10.260
7161.434	8.931	8.910	10.421
7163.083	9.345	8.910	10.342
7164.733	9.384	8.878	10.201
7166.383	9.752	8.856	9.951
7168.033	9.084	8.885	9.973
7169.684	8.545	8.948	10.259
7171.335	9.099	8.965	10.266
7172.986	9.406	9.010	10.218
7174.638	9.514	9.050	10.224
7176.290	8.986	9.063	10.358
7177.943	9.153	9.044	10.537
7179.596	9.018	9.006	10.430
7181.249	9.091	8.972	10.240
7182.903	9.893	8.858	10.183
7184.557	8.965	8.795	10.082
7186.212	8.754	8.764	9.748
7187.866	9.288	8.706	9.160
7189.522	8.955	8.628	9.074
7191.177	8.777	8.610	9.146
7192.833	9.499	8.666	9.063
7194.490	9.341	8.693	9.075
7196.147	8.497	8.675	9.031
7197.804	9.002	8.696	9.121
7199.461	9.559	8.781	9.333
7201.119	8.826	8.748	9.497
7202.778	9.361	8.738	9.420
7204.436	9.866	8.737	9.376
7206.095	9.400	8.726	9.350
7207.755	8.987	8.711	9.062
7209.415	8.770	8.697	9.087
7211.075	9.091	8.681	9.317
7212.735	9.136	8.696	9.329
7214.396	9.503	8.665	9.237
7216.058	8.952	8.666	9.267
7217.719	8.853	8.701	9.332
7219.382	9.385	8.690	9.197
7221.044	8.516	8.674	9.253
7222.707	8.250	8.617	9.565
7224.370	8.766	8.572	9.638
7226.034	9.540	8.551	9.627
7227.698	8.712	8.516	9.758
7229.362	8.960	8.454	9.814
7231.027	8.366	8.444	9.998
7232.692	7.843	8.467	10.211
7234.358	9.008	8.558	10.254
7236.024	9.426	8.630	10.378
7237.690	8.956	8.620	11.768
7239.357	9.513	8.566	23.222
7241.024	9.526	8.543	44.083
7242.692	11.097	8.537	54.216
7244.360	8.595	8.518	47.121
7246.028	7.238	8.498	48.112
7247.697	7.980	8.464	48.386
7249.366	8.557	8.419	31.833
7251.035	7.538	8.461	14.343
7252.705	8.911	8.522	12.508
7254.375	10.007	8.539	17.277
7256.046	9.198	8.573	19.103
7257.717	8.593	8.626	15.740
7259.388	8.376	8.622	11.850
7261.060	8.718	8.557	10.035
7262.732	8.396	8.545	9.806
7264.404	8.815	8.546	9.741
7266.077	8.517	8.547	9.756
7267.750	8.490	8.553	10.364
7269.424	8.538	8.575	11.156
7271.098	9.144	8.631	11.573
7272.772	8.955	8.669	11.077
7274.447	8.743	8.687	13.181
7276.122	8.079	8.682	32.576
7277.798	8.104	8.643	71.148
7279.474	8.144	8.590	68.169
7281.150	7.442	8.597	30.858
7282.827	8.339	8.581	13.463
7284.504	8.853	8.565	20.733
7286.182	7.660	8.540	32.418
7287.860	9.050	8.497	29.299
7289.538	7.493	8.460	15.615
7291.217	8.189	8.467	9.724
7292.896	8.353	8.523	10.228
7294.575	8.963	8.519	10.593
7296.255	8.769	8.510	13.378
7297.935	8.692	8.547	16.589
7299.616	9.365	8.582	14.812
7301.297	8.221	8.541	10.590
7302.978	8.731	8.526	11.614
7304.660	9.093	8.547	20.359
7306.342	8.394	8.550	23.871
7308.025	8.447	8.509	17.481
7309.708	9.264	8.470	10.447
7311.391	8.579	8.518	10.399
7313.075	8.667	8.605	11.289
7314.759	7.753	8.594	13.212
7316.443	8.926	8.585	31.217
7318.128	7.619	8.632	57.139
7319.813	9.093	8.664	47.792
7321.499	7.816	8.661	18.351
7323.185	8.594	8.668	10.050
7324.871	9.373	8.685	9.334
7326.558	8.390	8.716	9.513
7328.245	7.894	8.749	12.405
7329.933	9.577	8.774	23.894
7331.621	9.137	8.810	31.253
7333.309	9.473	8.831	21.659
7334.998	8.828	8.840	11.142
7336.687	9.332	8.843	9.859
7338.377	8.986	8.850	9.477
7340.067	8.517	8.848	18.152
7341.757	9.979	8.806	52.270
7343.448	9.622	8.848	66.592
7345.139	8.074	8.842	41.315
7346.830	8.101	8.798	12.555
7348.522	8.746	8.785	10.517
7350.214	8.931	8.821	9.922
7351.907	9.330	8.825	10.404
7353.600	8.794	8.799	10.413
7355.293	8.860	8.835	10.197
7356.987	8.453	8.868	10.465
7358.681	8.194	8.861	17.451
7360.376	8.840	8.856	27.449
7362.071	8.603	8.847	24.917
7363.766	8.180	8.860	14.101
7365.462	8.380	8.844	9.887
7367.158	8.581	8.841	10.625
7368.855	8.738	8.877	20.398
7370.552	10.851	8.907	47.248
7372.249	8.525	8.881	53.694
7373.947	10.666	8.891	29.411
7375.645	8.856	8.908	11.374
7377.343	8.470	8.907	10.420
7379.042	9.164	8.879	9.506
7380.742	8.630	8.843	9.633
7382.441	9.178	8.835	9.409
7384.141	7.900	8.771	9.446
7385.842	8.634	8.738	9.363
7387.543	8.923	8.716	9.111
7389.244	8.809	8.711	9.222
7390.946	9.662	8.738	10.752
7392.648	8.369	8.668	17.032
7394.350	9.072	8.688	22.195
7396.053	8.752	8.754	18.017
7397.756	7.538	8.825	11.102
7399.460	8.803	8.886	9.661
7401.164	9.074	8.924	14.635
7402.868	9.937	8.927	30.247
7404.573	9.154	8.940	35.252
7406.278	8.317	8.951	22.732
7407.983	8.672	8.958	10.403
7409.689	9.461	8.953	8.755
7411.396	8.922	8.935	8.714
7413.102	8.794	8.941	9.415
7414.810	8.757	8.952	9.882
7416.517	8.672	8.955	9.741
7418.225	9.266	8.976	9.438
7419.933	8.753	9.017	9.328
7421.642	8.677	9.049	9.119
7423.351	9.762	9.071	8.995
7425.061	9.101	9.026	9.033
7426.770	8.705	8.961	9.073
7428.481	9.194	8.942	9.921
7430.191	8.398	8.966	13.326
7431.902	9.772	8.991	16.192
7433.614	9.801	9.031	14.137
7435.326	9.094	9.068	10.274
7437.038	8.856	9.071	10.464
7438.751	9.044	9.102	16.372
7440.464	9.053	9.164	22.933
7442.177	8.595	9.177	19.650
7443.891	9.466	9.135	12.164
7445.605	8.349	9.122	9.037
7447.320	7.763	9.132	8.907
7449.035	8.364	9.122	8.824
7450.750	9.184	9.092	8.894
7452.466	9.047	9.062	9.013
7454.182	9.245	9.000	9.022
7455.899	8.959	8.968	9.031
7457.616	8.097	8.962	9.111
7459.333	8.644	8.912	9.321
7461.051	8.854	8.870	9.720
7462.769	9.987	8.935	10.712
7464.488	9.178	8.969	12.066
7466.207	9.131	8.934	13.216
7467.926	8.805	8.969	14.622
7469.646	8.406	9.024	14.564
7471.366	8.875	9.075	14.665
7473.086	9.299	9.159	18.088
7474.807	8.563	9.192	21.392
7476.529	8.721	9.201	19.112
7478.250	8.748	9.245	14.520
7479.972	9.378	9.280	16.002
7481.695	9.197	9.273	19.938
7483.418	8.536	9.240	21.794
7485.141	9.452	9.182	22.203
7486.865	9.694	9.101	18.907
7488.589	9.440	9.057	12.717
7490.314	9.334	9.030	9.834
7492.038	8.806	8.998	9.363
7493.764	8.562	8.976	10.993
7495.489	9.415	8.982	13.505
7497.216	9.688	9.082	12.346
7498.942	8.765	9.114	9.850
7500.669	8.774	9.126	9.014
7502.396	9.310	9.154	9.210
7504.124	8.618	9.153	9.179
7505.852	9.179	9.171	8.875
7507.581	9.174	9.199	9.115
7509.309	9.418	9.197	8.663
7511.039	9.100	9.160	8.779
7512.768	8.935	9.116	8.747
7514.498	9.032	9.080	8.509
7516.229	9.112	9.015	8.943
7517.960	9.051	9.001	10.484
7519.691	8.908	8.984	11.522
7521.423	8.580	8.984	10.898
7523.155	8.699	9.011	15.941
7524.887	8.025	9.027	37.852
7526.620	11.169	9.016	47.767
7528.353	9.521	9.053	28.879
7530.087	9.045	9.129	13.494
7531.821	9.274	9.184	18.387
7533.556	8.982	9.215	19.393
7535.291	8.272	9.239	13.782
7537.026	9.387	9.180	9.158
7538.761	10.137	9.208	9.505
7540.497	9.587	9.237	10.333
7542.234	9.214	9.220	11.923
7543.971	8.227	9.171	11.503
7545.708	8.090	9.138	9.653
7547.446	9.074	9.160	8.993
7549.184	8.682	9.128	8.836
7550.922	9.491	9.126	8.736
7552.661	8.414	9.143	9.124
7554.400	9.336	9.171	9.361
7556.140	9.313	9.229	10.108
7557.880	9.132	9.252	13.059
7559.621	9.249	9.230	16.248
7561.361	8.705	9.230	14.377
7563.103	9.584	9.220	9.959
7564.844	9.113	9.175	9.005
7566.586	8.509	9.137	9.206
7568.329	8.996	9.156	10.104
7570.072	8.659	9.180	12.115
7571.815	10.453	9.222	20.557
7573.559	10.179	9.220	32.873
7575.303	8.639	9.189	30.351
7577.047	9.084	9.201	17.260
7578.792	9.462	9.187	10.263
7580.537	9.735	9.174	8.893
7582.283	8.976	9.206	8.566
7584.029	8.976	9.222	8.520
7585.776	8.786	9.220	11.434
7587.523	8.926	9.250	16.933
7589.270	10.150	9.237	17.379
7591.018	8.999	9.232	12.237
7592.766	9.560	9.229	9.281
7594.514	8.536	9.221	8.792
7596.263	9.070	9.196	8.248
7598.012	8.313	9.139	14.522
7599.762	8.240	9.069	29.363
7601.512	11.690	9.104	33.242
7603.263	6.928	9.147	19.364
7605.014	9.192	9.190	9.432
7606.765	8.907	9.238	8.954
7608.517	8.590	9.264	9.112
7610.269	7.686	9.264	8.940
7612.021	7.543	9.214	9.038
7613.774	8.574	9.216	9.076
7615.528	8.094	9.202	8.645
7617.281	9.301	9.190	10.057
7619.036	9.605	9.264	15.666
7620.790	10.346	9.276	17.484
7622.545	10.132	9.284	13.711
7624.300	8.140	9.332	11.123
7626.056	9.814	9.339	10.678
7627.812	8.482	9.299	12.550
7629.569	8.696	9.294	24.066
7631.326	8.132	9.288	29.564
7633.083	9.661	9.251	19.235
7634.841	8.592	9.254	9.745
7636.599	8.774	9.284	8.158
7638.358	7.788	9.310	8.359
7640.117	8.098	9.326	8.460
7641.876	8.905	9.330	8.645
7643.636	10.016	9.360	8.620
7645.396	8.689	9.363	8.446
7647.157	8.968	9.357	8.523
7648.918	8.598	9.364	8.289
7650.679	8.444	9.359	8.445
7652.441	8.914	9.318	9.445
7654.203	9.374	9.334	11.795
7655.966	9.365	9.349	13.122
7657.729	9.184	9.333	10.902
7659.493	9.527	9.297	8.170
7661.256	7.918	9.285	9.296
7663.021	9.389	9.332	14.977
7664.785	10.553	9.284	17.951
7666.550	9.735	9.301	14.074
7668.316	7.862	9.333	9.318
7670.082	9.103	9.333	8.230
7671.848	9.600	9.330	8.197
7673.615	9.459	9.253	8.608
7675.382	8.770	9.246	8.774
7677.150	8.950	9.278	8.361
7678.917	9.876	9.298	8.077
7680.686	9.679	9.290	8.174
7682.455	9.218	9.275	8.874
7684.224	9.471	9.289	9.629
7685.993	9.606	9.273	9.276
7687.763	9.679	9.233	9.597
7689.534	9.692	9.167	10.040
7691.304	9.706	9.091	10.023
7693.076	9.720	9.040	9.554
7694.847	9.734	9.000	0.000
7696.619	9.747	8.948	0.000
7698.392	9.761	8.934	0.000
7700.164	9.775	8.944	0.000
7701.938	9.789	8.965	0.000
7703.711	9.802	8.975	0.000
7705.485	9.816	8.896	0.000
7707.260	9.830	8.860	0.000
7709.035	9.844	8.854	0.000
7710.810	9.857	8.862	0.000
7712.586	9.871	8.889	0.000
7714.362	9.885	8.914	0.000
7716.138	9.899	8.866	0.000
7717.915	9.912	8.858	0.000
7719.692	9.926	8.871	0.000
7721.470	9.940	8.852	0.000
7723.248	9.954	8.801	0.000
7725.027	9.967	8.767	0.000
7726.806	9.981	8.768	0.000
7728.585	9.995	8.848	0.000
7730.365	10.009	8.912	0.000
7732.145	10.022	8.893	0.000
7733.926	10.036	8.863	0.000
7735.707	10.050	8.907	0.000
7737.488	10.064	8.870	0.000
7739.270	10.077	8.845	0.000
7741.052	10.091	8.842	0.000
7742.835	10.105	8.812	0.000
7744.618	10.119	8.787	0.000
7746.401	10.132	8.832	0.000
7748.185	10.146	8.863	0.000
7749.970	10.160	8.845	0.000
7751.754	10.174	8.893	0.000
7753.539	10.187	8.894	0.000
7755.325	10.201	8.816	0.000
7757.111	10.215	8.779	0.000
7758.897	10.229	8.754	0.000
7760.684	10.242	8.647	0.000
7762.471	10.256	8.563	0.000
7764.259	10.270	8.526	0.000
7766.047	10.284	8.486	0.000
7767.835	10.297	8.397	0.000
7769.624	10.311	8.297	0.000
7771.413	10.325	8.266	0.000
7773.203	10.339	8.269	0.000
7774.993	10.352	8.308	0.000
7776.783	10.366	8.390	0.000
7778.574	10.380	8.489	0.000
7780.366	10.394	8.563	0.000
7782.157	10.407	8.582	0.000
7783.949	10.421	8.591	0.000
7785.742	10.435	8.597	0.000
7787.535	10.449	8.592	0.000
7789.328	10.462	8.584	0.000
7791.122	10.476	8.591	0.000
7792.916	10.490	8.650	0.000
7794.711	10.504	8.620	0.000
7796.506	10.518	8.559	0.000
7798.301	10.531	8.532	0.000
7800.097	10.545	8.510	0.000
7801.893	10.559	8.510	0.000
7803.690	10.573	8.520	0.000
7805.487	10.586	8.477	0.000
7807.284	10.600	8.479	0.000
7809.082	10.614	8.537	0.000
7810.881	10.628	8.548	0.000
7812.679	10.641	8.571	0.000
7814.478	10.655	8.584	0.000
7816.278	10.669	8.554	0.000
7818.078	10.683	8.478	0.000
7819.878	10.696	8.411	0.000
7821.679	10.710	8.403	0.000
7823.480	10.724	8.377	0.000
7825.282	10.738	8.392	0.000
7827.084	10.752	8.418	0.000
7828.887	10.765	8.433	0.000
7830.689	10.779	8.462	0.000
7832.493	10.793	8.518	0.000
7834.296	10.807	8.507	0.000
7836.101	10.820	8.551	0.000
7837.905	10.834	8.578	0.000
7839.710	10.848	8.605	0.000
7841.515	10.862	8.654	0.000
7843.321	10.875	8.692	0.000
7845.127	10.889	8.725	0.000
7846.934	10.903	8.707	0.000
7848.741	10.917	8.642	0.000
7850.548	10.931	8.616	0.000
7852.356	10.944	8.605	0.000
7854.165	10.958	8.501	0.000
7855.973	10.972	8.388	0.000
7857.782	10.986	8.407	0.000
7859.592	10.999	8.435	0.000
7861.402	11.013	8.459	0.000
7863.212	11.027	8.507	0.000
7865.023	11.041	8.562	0.000
7866.834	11.055	8.575	0.000
7868.646	11.068	8.591	0.000
7870.458	11.082	8.597	32.642
7872.270	11.096	8.570	47.200
7874.083	9.207	8.559	39.992
7875.896	6.969	8.618	17.556
7877.710	8.175	8.617	10.346
7879.524	9.514	8.582	19.784
7881.339	8.896	8.566	29.265
7883.154	8.496	8.587	31.251
7884.969	8.437	8.583	23.716
7886.785	7.586	8.520	14.363
7888.601	8.748	8.575	13.583
7890.418	8.460	8.534	32.089
7892.235	9.747	8.509	47.318
7894.052	8.935	8.520	33.173
7895.870	7.141	8.504	14.238
7897.688	9.013	8.453	10.111
7899.507	9.614	8.518	9.310
7901.326	8.918	8.574	8.842
7903.146	7.512	8.552	8.467
7904.966	9.233	8.522	8.870
7906.786	8.900	8.532	9.400
7908.607	8.537	8.530	9.516
7910.428	8.236	8.456	10.070
7912.250	7.934	8.519	18.035
7914.072	4.697	8.613	68.539
7915.895	15.525	8.623	115.863
7917.717	3.701	8.589	75.529
7919.541	7.026	8.609	21.585
7921.365	8.842	8.605	31.387
7923.189	9.313	8.676	51.970
7925.013	8.448	8.747	39.716
7926.838	7.304	8.772	13.898
7928.664	9.486	8.755	9.543
7930.490	7.286	8.717	14.475
7932.316	7.762	8.670	28.921
7934.143	6.773	8.690	35.689
7935.970	7.563	8.656	22.621
7937.797	6.723	8.581	10.499
7939.625	8.566	8.512	8.020
7941.454	8.460	8.441	8.107
7943.282	8.276	8.357	8.434
7945.112	8.611	8.386	9.148
7946.941	8.616	8.438	10.453
7948.771	8.845	8.484	15.283
7950.602	9.745	8.529	27.192
7952.433	9.405	8.550	26.951
7954.264	8.579	8.515	14.896
7956.096	8.170	8.566	8.143
7957.928	8.739	8.531	7.963
7959.760	8.842	8.503	7.718
7961.594	8.543	8.518	7.914
7963.427	9.183	8.473	13.932
7965.261	8.215	8.520	50.756
7967.095	11.153	8.548	79.745
7968.930	7.590	8.553	54.102
7970.765	8.249	8.577	19.176
7972.600	8.812	8.601	10.939
7974.436	8.694	8.587	8.883
7976.273	8.128	8.610	9.633
7978.110	7.944	8.574	15.364
7979.947	8.327	8.551	29.316
7981.785	7.862	8.532	39.579
7983.623	8.411	8.492	28.769
7985.461	8.370	8.460	12.216
7987.300	7.931	8.469	8.540
7989.139	9.130	8.429	8.649
7990.979	8.353	8.434	10.441
7992.819	7.117	8.466	26.356
7994.660	8.503	8.456	78.648
7996.501	4.093	8.414	89.165
7998.343	8.983	8.487	39.051
8000.184	8.093	8.520	10.808
8002.027	7.940	8.512	9.768
8003.870	8.216	8.458	8.971
8005.713	7.784	8.397	8.698
8007.556	8.111	8.394	8.115
8009.400	8.072	8.380	7.884
8011.245	8.797	8.362	7.978
8013.090	8.917	8.396	11.676
8014.935	8.528	8.413	24.085
8016.781	8.410	8.370	30.356
8018.627	9.875	8.307	19.533
8020.473	8.208	8.248	11.015
8022.320	8.943	8.281	11.436
8024.168	8.560	8.286	11.968
8026.016	10.198	8.229	32.078
8027.864	9.143	8.190	65.276
8029.713	9.269	8.235	53.395
8031.562	6.651	8.242	21.660
8033.411	8.073	8.245	11.812
8035.261	8.177	8.207	9.933
8037.112	8.565	8.220	8.862
8038.962	8.140	8.278	8.229
8040.814	8.556	8.243	7.966
8042.665	8.374	8.159	8.051
8044.517	7.658	8.114	8.010
8046.370	8.582	8.134	7.535
8048.223	8.033	8.121	7.494
8050.076	8.389	8.082	8.345
8051.930	8.756	8.115	13.722
8053.784	8.248	8.097	22.080
8055.639	7.561	8.109	20.097
8057.494	7.042	8.081	10.658
8059.350	7.464	8.081	7.539
8061.206	7.773	8.140	11.867
8063.062	8.013	8.194	27.994
8064.919	7.518	8.254	36.633
8066.776	8.443	8.271	23.255
8068.634	7.904	8.306	10.002
8070.492	8.987	8.324	7.745
8072.350	9.566	8.317	7.466
8074.209	8.545	8.351	7.596
8076.069	7.588	8.420	8.180
8077.928	8.289	8.370	8.979
8079.789	7.766	8.354	9.067
8081.649	7.630	8.386	8.159
8083.510	7.871	8.424	7.837
8085.372	8.172	8.446	8.792
8087.234	7.651	8.377	9.501
8089.096	7.983	8.344	9.111
8090.959	8.462	8.332	7.750
8092.822	8.092	8.390	8.118
8094.686	9.209	8.462	11.997
8096.550	8.380	8.423	13.978
8098.414	8.896	8.404	10.794
8100.279	6.967	8.376	8.190
8102.145	7.790	8.365	11.533
8104.011	6.545	8.332	18.853
8105.877	9.073	8.288	18.975
8107.743	8.247	8.316	12.134
8109.611	7.731	8.349	8.436
8111.478	8.279	8.263	7.924
8113.346	7.954	8.280	7.810
8115.214	7.966	8.336	7.754
8117.083	7.283	8.351	7.463
8118.952	8.135	8.391	7.444
8120.822	7.965	8.426	7.529
8122.692	7.571	8.416	7.253
8124.563	8.602	8.514	7.270
8126.434	8.738	8.552	7.624
8128.305	8.476	8.493	7.912
8130.177	7.990	8.529	7.923
8132.049	8.029	8.518	7.765
8133.922	9.144	8.397	7.934
8135.795	8.887	8.366	7.900
8137.669	8.529	8.334	8.110
8139.543	8.321	8.263	9.803
8141.417	7.466	8.288	11.911
8143.292	8.674	8.324	10.359
8145.167	8.351	8.448	7.865
8147.043	9.159	8.478	9.897
8148.919	7.983	8.501	12.768
8150.796	8.935	8.573	11.367
8152.673	7.841	8.573	8.304
8154.550	7.779	8.498	7.239
8156.428	8.205	8.441	7.329
8158.306	8.492	8.345	7.120
8160.185	7.526	8.297	7.120
8162.064	7.947	8.351	7.196
8163.944	9.045	8.428	6.966
8165.824	8.838	8.488	6.921
8167.704	8.465	8.458	6.999
8169.585	9.101	8.494	6.955
8171.466	8.459	8.536	7.045
8173.348	8.485	8.524	7.077
8175.230	8.275	8.515	7.299
8177.113	9.031	8.458	7.494
8178.996	8.597	8.445	7.430
8180.880	8.697	8.378	8.045
8182.764	9.085	8.338	8.486
8184.648	8.266	8.354	9.136
8186.533	7.858	8.334	9.716
8188.418	8.401	8.353	10.273
8190.304	7.548	8.362	10.800
8192.190	8.452	8.418	10.382
8194.076	6.895	8.420	9.772
8195.963	9.513	8.377	10.731
8197.851	8.150	8.409	11.725
8199.738	8.876	8.335	10.527
8201.627	8.652	8.329	8.702
8203.515	8.707	8.353	8.323
8205.405	8.651	8.272	8.577
8207.294	8.506	8.151	8.659
8209.184	8.288	8.204	8.477
8211.075	9.057	8.280	8.291
8212.966	8.526	8.326	7.762
8214.857	7.606	8.330	7.637
8216.749	7.791	8.373	7.794
8218.641	9.841	8.436	7.407
8220.533	8.651	8.417	7.052
8222.426	9.018	8.432	6.952
8224.320	8.533	8.417	7.176
8226.214	9.033	8.407	7.496
8228.108	8.084	8.395	7.180
8230.003	8.968	8.378	6.760
8231.898	8.340	8.401	6.660
8233.794	7.371	8.463	6.551
8235.690	8.915	8.442	6.665
8237.587	8.205	8.449	6.859
8239.484	8.766	8.466	7.017
8241.381	9.076	8.467	7.056
8243.279	8.372	8.480	7.907
8245.177	7.643	8.433	8.349
8247.076	9.069	8.494	7.455
8248.975	8.993	8.526	8.002
8250.875	8.375	8.519	8.139
8252.775	8.439	8.506	7.339
8254.675	8.820	8.472	7.022
8256.576	8.204	8.469	7.397
8258.478	8.238	8.485	7.362
8260.379	8.048	8.517	6.910
8262.282	8.163	8.539	6.601
8264.184	9.505	8.523	6.553
8266.088	8.189	8.493	6.802
8267.991	7.708	8.533	7.121
8269.895	8.113	8.525	6.985
8271.800	9.367	8.497	6.904
8273.704	9.023	8.478	7.114
8275.610	9.233	8.483	7.183
8277.515	8.270	8.495	10.453
8279.422	9.043	8.443	22.177
8281.328	10.941	8.567	39.413
8283.235	8.083	8.586	53.596
8285.143	8.031	8.501	45.900
8287.051	7.831	8.489	30.098
8288.959	7.706	8.582	50.436
8290.868	6.269	8.522	72.369
8292.777	9.861	8.494	49.592
8294.687	6.018	8.446	15.896
8296.597	6.857	8.356	19.767
8298.508	8.175	8.260	44.533
8300.419	7.728	8.214	75.816
8302.330	7.476	8.277	67.017
8304.242	8.601	8.275	29.800
8306.154	7.839	8.285	11.508
8308.067	8.047	8.260	8.277
8309.980	6.725	8.197	11.173
8311.894	9.843	8.178	24.420
8313.808	8.840	8.111	30.101
8315.723	7.903	8.165	16.408
8317.638	8.381	8.164	7.430
8319.553	7.701	8.150	8.343
8321.469	7.724	8.154	8.497
8323.385	7.902	8.097	7.643
8325.302	7.926	8.110	6.794
8327.219	8.433	8.183	6.379
8329.137	7.649	8.210	6.228
8331.055	7.517	8.221	6.551
8332.973	8.522	8.232	6.307
8334.892	9.175	8.206	5.951
8336.812	8.245	8.254	6.495
8338.732	7.996	8.378	7.507
8340.652	8.654	8.375	8.848
8342.573	7.310	8.359	16.079
8344.494	7.050	8.397	74.958
8346.415	14.057	8.357	166.292
8348.338	10.933	8.332	136.740
8350.260	7.878	8.372	45.753
8352.183	6.562	8.358	24.498
8354.106	7.045	8.340	54.239
8356.030	10.634	8.365	60.719
8357.954	7.027	8.363	26.542
8359.879	8.010	8.333	7.945
8361.804	8.366	8.364	9.033
8363.730	9.357	8.359	13.021
8365.656	8.216	8.306	22.021
8367.582	9.576	8.265	25.697
8369.509	7.755	8.270	16.787
8371.437	6.622	8.248	8.315
8373.365	7.188	8.264	6.772
8375.293	8.143	8.353	6.509
8377.222	8.243	8.442	6.756
8379.151	8.865	8.462	7.366
8381.080	8.366	8.431	11.752
8383.010	7.967	8.412	31.877
8384.941	9.237	8.312	46.517
8386.872	8.063	8.285	29.188
8388.803	7.082	8.310	10.448
8390.735	7.737	8.276	6.998
8392.667	8.249	8.195	7.809
8394.600	8.488	8.294	7.720
8396.533	8.794	8.295	7.731
8398.467	5.879	8.257	25.108
8400.401	9.694	8.269	108.531
8402.335	11.469	8.274	134.981
8404.270	8.956	8.171	54.968
8406.205	6.210	8.130	10.323
8408.141	8.533	8.125	6.989
8410.078	8.554	8.141	6.509
8412.014	7.523	8.117	6.843
8413.951	6.534	8.053	10.949
8415.889	8.436	8.039	34.924
8417.827	8.617	8.072	55.846
8419.766	9.150	8.029	32.942
8421.705	6.998	7.972	9.580
8423.644	7.918	7.912	8.148
8425.584	8.332	7.860	7.865
8427.524	7.846	7.889	9.829
8429.465	6.822	8.014	35.545
8431.406	7.625	8.009	113.079
8433.348	8.976	8.037	138.701
8435.290	6.526	8.099	58.717
8437.232	7.391	8.108	13.362
8439.175	7.046	8.040	8.176
8441.119	8.487	7.930	6.335
8443.062	7.980	7.860	6.404
8445.007	7.686	7.885	6.725
8446.951	7.563	7.915	7.382
8448.897	8.143	7.876	8.057
8450.842	6.537	7.833	10.706
8452.788	9.460	7.896	30.023
8454.735	10.466	7.874	48.390
8456.682	7.165	7.883	31.705
8458.629	8.548	7.915	10.143
8460.577	8.896	7.901	6.503
8462.526	6.433	7.842	8.345
8464.474	6.571	7.789	18.954
8466.424	7.374	7.796	78.409
8468.373	8.356	7.902	105.364
8470.324	7.260	8.000	51.539
8472.274	7.255	7.985	10.976
8474.225	7.981	7.906	7.374
8476.177	7.618	7.931	8.830
8478.129	7.741	7.920	9.060
8480.081	8.727	7.955	7.075
8482.034	7.516	7.915	6.228
8483.987	7.135	7.868	6.195
8485.941	8.552	8.040	5.908
8487.895	8.764	7.993	5.963
8489.850	7.957	7.944	6.235
8491.805	7.737	7.971	7.576
8493.760	7.755	7.992	19.986
8495.716	9.059	7.935	35.373
8497.673	8.067	7.831	25.803
8499.630	7.841	7.763	9.305
8501.587	6.918	7.766	7.298
8503.545	8.253	7.756	11.912
8505.503	6.184	7.727	38.235
8507.462	9.501	7.754	60.143
8509.421	7.213	7.881	37.259
8511.380	7.871	7.949	11.163
8513.340	8.182	7.944	6.652
8515.301	8.565	7.961	5.779
8517.262	8.041	8.033	5.860
8519.223	8.817	8.059	5.850
8521.185	7.711	7.973	6.728
8523.147	9.027	8.066	7.193
8525.110	8.510	8.008	6.731
8527.073	9.202	8.003	6.211
8529.037	8.456	7.972	5.945
8531.001	8.192	7.870	5.675
8532.966	7.841	7.889	5.768
8534.931	7.416	7.954	5.853
8536.896	7.496	7.973	6.090
8538.862	6.607	7.931	10.626
8540.828	8.078	7.888	17.431
8542.795	7.686	7.859	14.304
8544.763	7.726	7.802	7.288
8546.730	8.082	7.781	6.200
8548.698	7.748	7.802	15.200
8550.667	8.873	7.780	29.184
8552.636	7.878	7.743	25.513
8554.606	6.356	7.684	11.289
8556.576	8.846	7.576	6.423
8558.546	7.767	7.663	5.875
8560.517	7.652	7.679	5.652
8562.488	7.096	7.686	5.676
8564.460	7.879	7.730	5.493
8566.433	7.385	7.730	5.424
8568.405	7.120	7.636	5.793
8570.378	7.196	7.713	5.888
8572.352	8.434	7.751	5.965
8574.326	7.729	7.747	6.282
8576.301	7.876	7.730	7.066
8578.276	7.575	7.706	7.100
8580.251	8.511	7.682	6.653
8582.227	7.843	7.686	6.008
8584.203	7.636	7.581	5.590
8586.180	7.245	7.524	5.729
8588.157	7.451	7.555	7.769
8590.135	8.132	7.621	12.229
8592.113	7.945	7.686	11.524
8594.092	8.675	7.738	7.062
8596.071	8.687	7.734	7.151
8598.051	7.983	7.717	12.144
8600.031	8.075	7.728	14.724
8602.011	7.869	7.736	10.038
8603.992	7.479	7.707	6.231
8605.973	7.808	7.787	5.949
8607.955	7.559	7.701	6.012
8609.938	8.391	7.642	6.041
8611.920	7.805	7.562	6.601
8613.903	7.062	7.359	7.529
8615.887	6.354	7.109	8.896
8617.871	6.284	6.937	11.068
8619.856	6.448	7.012	13.654
8621.841	7.176	7.290	16.181
8623.826	7.047	7.469	18.884
8625.812	7.774	7.502	21.503
8627.799	8.474	7.624	24.158
8629.785	7.291	7.586	26.243
8631.773	8.284	7.525	26.772
8633.761	8.022	7.489	26.481
8635.749	6.246	7.428	24.943
8637.737	8.172	7.447	22.609
8639.727	8.405	7.654	19.725
8641.716	6.950	7.527	16.339
8643.706	9.147	7.494	15.209
8645.697	6.683	7.497	11.346
8647.688	7.950	7.499	10.055
8649.679	8.071	7.491	14.312
8651.671	7.562	7.414	21.912
8653.663	8.212	7.268	25.262
8655.656	6.364	7.037	24.714
8657.650	8.634	6.711	26.433
8659.643	4.880	6.387	24.996
8661.637	6.643	6.183	25.718
8663.632	6.595	6.180	24.151
8665.627	5.422	6.426	21.785
8667.623	7.590	6.755	23.504
8669.619	6.638	7.004	20.460
8671.615	7.777	7.196	19.979
8673.612	6.813	7.371	19.251
8675.610	7.832	7.464	14.517
8677.607	7.594	7.449	16.463
8679.606	8.847	7.516	14.052
8681.605	6.970	7.561	12.349
8683.604	8.562	7.561	12.870
8685.604	7.449	7.570	10.855
8687.604	7.787	7.610	9.484
8689.604	7.943	7.628	9.475
8691.605	8.061	7.674	7.570
8693.607	7.686	7.654	7.015
8695.609	8.104	7.610	7.929
8697.611	7.488	7.586	7.176
8699.614	7.526	7.560	7.183
8701.618	7.218	7.609	8.688
8703.622	7.711	7.621	8.814
8705.626	7.601	7.632	7.461
8707.631	6.249	7.622	7.874
8709.636	8.017	7.588	9.352
8711.642	6.590	7.585	8.299
8713.648	7.597	7.591	6.428
8715.654	7.069	7.628	6.112
8717.661	7.251	7.654	6.115
8719.669	7.077	7.620	5.913
8721.677	8.804	7.570	5.711
8723.685	7.042	7.607	5.658
8725.694	8.537	7.625	5.878
8727.704	8.001	7.594	6.421
8729.714	6.978	7.613	6.680
8731.724	6.679	7.610	6.015
8733.735	7.605	7.552	5.445
8735.746	8.381	7.554	5.372
8737.758	9.580	7.611	5.452
8739.770	7.045	7.663	5.992
8741.783	8.045	7.691	6.557
8743.796	7.812	7.688	6.571
8745.809	9.109	7.682	6.099
8747.823	9.069	7.694	5.866
8749.838	8.346	7.643	6.089
8751.853	8.605	7.655	6.258
8753.868	9.220	7.655	6.066
8755.884	7.654	7.671	5.631
8757.900	6.079	7.721	9.601
8759.917	6.986	7.741	30.925
8761.934	3.437	7.763	75.612
8763.952	10.318	7.744	89.827
8765.970	7.563	7.665	59.999
8767.989	5.013	7.605	76.139
8770.008	11.602	7.591	121.144
8772.028	9.616	7.568	83.194
8774.048	6.748	7.594	20.600
8776.068	4.229	7.539	22.723
8778.089	3.398	7.400	71.971
8780.111	7.542	7.150	128.125
8782.133	10.359	6.858	92.991
8784.155	2.915	6.724	25.640
8786.178	6.175	6.809	6.853
8788.201	6.627	6.995	6.640
8790.225	6.488	7.174	11.724
8792.249	8.100	7.316	33.412
8794.274	10.354	7.391	41.654
8796.299	7.763	7.373	21.240
8798.325	6.968	7.411	7.186
8800.351	7.600	7.487	6.194
8802.378	7.354	7.526	5.932
8804.405	7.401	7.487	5.774
8806.432	7.932	7.435	5.309
8808.460	8.893	7.473	5.109
8810.489	7.933	7.499	7.498
8812.518	7.509	7.474	9.579
8814.547	8.278	7.513	8.154
8816.577	8.204	7.573	5.511
8818.607	8.416	7.593	5.273
8820.638	7.352	7.616	6.274
8822.669	7.933	7.639	6.387
8824.701	7.721	7.641	14.336
8826.733	5.897	7.639	87.068
8828.766	7.012	7.631	240.521
8830.799	14.652	7.582	231.205
8832.833	5.419	7.514	58.393
8834.867	6.851	7.603	26.077
8836.901	4.663	7.627	61.232
8838.936	8.779	7.645	95.580
8840.972	8.085	7.625	58.021
8843.008	9.215	7.601	13.473
8845.044	6.874	7.683	7.169
8847.081	6.852	7.627	8.656
8849.118	8.845	7.615	13.354
8851.156	7.440	7.622	28.578
8853.194	9.453	7.629	31.608
8855.233	8.920	7.658	15.582
8857.272	7.408	7.699	6.726
8859.312	5.636	7.648	6.253
8861.352	7.829	7.636	6.233
8863.393	8.347	7.604	8.530
8865.434	7.049	7.545	10.953
8867.476	9.225	7.524	28.797
8869.518	7.438	7.565	65.420
8871.560	9.970	7.543	53.572
8873.603	5.323	7.517	16.271
8875.647	8.217	7.522	5.679
8877.690	7.764	7.502	6.091
8879.735	7.794	7.467	5.620
8881.780	6.794	7.509	6.068
8883.825	5.304	7.512	11.375
8885.871	12.436	7.483	69.325
8887.917	-2.779	7.521	189.640
8889.964	19.861	7.573	145.133
8892.011	1.563	7.559	31.995
8894.059	11.181	7.527	7.815
8896.107	6.854	7.586	7.299
8898.156	6.785	7.597	7.396
8900.205	7.889	7.578	7.359
8902.254	3.888	7.578	16.589
8904.304	11.159	7.605	62.664
8906.355	3.932	7.638	83.493
8908.406	8.408	7.673	36.191
8910.457	7.220	7.614	10.725
8912.509	8.119	7.607	8.534
8914.562	7.096	7.606	6.600
8916.615	7.709	7.563	7.784
8918.668	2.861	7.574	30.259
8920.722	5.926	7.580	152.571
8922.776	12.784	7.553	209.459
8924.831	7.106	7.532	89.750
8926.886	6.309	7.524	15.620
8928.942	7.195	7.474	9.814
8930.998	8.240	7.379	9.850
8933.055	8.012	7.487	8.233
8935.112	9.032	7.575	6.945
8937.170	8.842	7.589	7.159
8939.228	7.258	7.586	7.328
8941.286	9.261	7.604	7.140
8943.345	5.201	7.614	27.258
8945.405	9.386	7.589	69.105
8947.465	9.391	7.539	55.363
8949.525	6.050	7.568	15.663
8951.586	8.442	7.573	6.117
8953.648	7.553	7.546	6.092
8955.710	9.210	7.632	7.303
8957.772	1.605	7.588	45.421
8959.835	11.377	7.587	153.147
8961.898	10.866	7.590	142.665
8963.962	5.824	7.562	40.506
8966.026	6.774	7.557	8.213
8968.091	7.905	7.623	6.333
8970.156	6.980	7.604	5.721
8972.222	8.303	7.602	7.903
8974.288	7.414	7.659	8.687
8976.355	7.299	7.678	6.851
8978.422	8.202	7.626	5.807
8980.489	8.283	7.612	6.341
8982.557	7.637	7.600	7.838
8984.626	7.089	7.508	8.416
8986.695	6.790	7.476	8.860
8988.764	6.975	7.470	28.573
8990.834	10.601	7.433	50.805
8992.905	6.359	7.428	34.615
8994.976	8.006	7.436	12.878
8997.047	7.305	7.433	7.867
8999.119	8.227	7.472	6.117
9001.191	5.114	7.501	31.240
9003.264	9.530	7.469	89.593
9005.338	9.709	7.447	78.103
9007.411	7.002	7.528	23.006
9009.486	7.727	7.512	6.076
9011.560	7.057	7.480	4.772
9013.636	7.218	7.480	4.500
9015.711	6.716	7.494	4.765
9017.788	7.575	7.500	4.070
9019.864	8.053	7.487	4.440
9021.941	7.838	7.493	5.814
9024.019	7.527	7.516	6.598
9026.097	7.238	7.525	5.871
9028.176	8.029	7.526	5.167
9030.255	9.341	7.550	5.550
9032.334	7.974	7.536	6.351
9034.414	7.528	7.514	5.589
9036.495	6.021	7.485	5.738
9038.576	7.139	7.495	16.664
9040.657	6.093	7.520	27.556
9042.739	8.750	7.478	17.501
9044.821	6.186	7.530	8.244
9046.904	8.487	7.465	6.669
9048.988	6.567	7.437	14.582
9051.072	7.428	7.457	42.943
9053.156	9.200	7.448	43.662
9055.241	6.727	7.423	16.885
9057.326	8.118	7.447	6.403
9059.412	7.321	7.434	6.602
9061.498	7.477	7.442	5.726
9063.585	8.171	7.455	5.180
9065.672	7.140	7.446	5.772
9067.760	6.767	7.439	6.648
9069.848	6.568	7.404	7.280
9071.936	7.290	7.411	7.248
9074.026	6.957	7.429	6.367
9076.115	8.819	7.483	5.457
9078.205	6.136	7.536	4.927
9080.296	6.364	7.491	4.578
9082.387	8.686	7.548	4.429
9084.478	8.013	7.480	4.759
9086.570	8.736	7.440	5.274
9088.663	8.647	7.450	4.672
9090.756	7.218	7.462	5.058
9092.849	5.713	7.489	10.413
9094.943	8.750	7.459	14.672
9097.038	9.170	7.466	12.490
9099.133	10.212	7.451	6.227
9101.228	8.264	7.428	6.117
9103.324	3.565	7.429	17.482
9105.420	8.058	7.428	23.361
9107.517	8.939	7.427	15.322
9109.615	7.658	7.426	6.419
9111.712	7.306	7.425	4.173
9113.811	7.640	7.424	5.090
9115.909	6.981	7.424	4.849
9118.009	8.142	7.423	4.176
9120.108	6.840	7.422	4.147
9122.209	6.679	7.421	4.392
9124.309	7.891	7.420	4.637
9126.411	7.208	7.419	4.737
9128.512	7.432	7.418	4.421
9130.614	7.965	7.417	3.982
9132.717	8.300	7.416	4.027
9134.820	7.814	7.415	4.476
9136.924	5.442	7.414	5.029
9139.028	6.000	7.414	5.001
9141.132	7.532	7.413	4.593
9143.237	8.114	7.412	4.669
9145.343	6.041	7.411	5.082
9147.449	7.051	7.410	4.966
9149.556	7.851	7.409	4.512
9151.663	5.719	7.408	7.258
9153.770	7.521	7.407	12.417
9155.878	7.347	7.406	12.712
9157.987	7.383	7.405	8.685
9160.095	7.917	7.405	8.221
9162.205	7.180	7.404	14.440
9164.315	8.666	7.403	14.415
9166.425	7.434	7.402	8.935
9168.536	6.437	7.401	5.977
9170.647	8.274	7.400	5.146
9172.759	7.114	7.399	5.199
9174.872	8.365	7.398	5.479
9176.985	6.409	7.397	5.865
9179.098	7.068	7.396	5.838
9181.212	8.376	7.395	5.700
9183.326	8.157	7.395	5.664
9185.441	7.673	7.394	5.766
9187.556	5.983	7.393	5.870
9189.672	7.036	7.392	5.710
9191.788	7.955	7.391	5.708
9193.905	7.889	7.390	5.838
9196.022	7.889	7.389	6.013
9198.140	7.889	7.388	6.093
9200.258	7.889	7.387	5.815
9202.377	7.889	7.386	0.000
9204.496	7.889	7.385	0.000
9206.615	7.889	7.385	0.000
9208.736	7.889	7.384	0.000
9210.856	7.889	7.383	0.000
9212.977	7.890	7.382	0.000
9215.099	7.890	7.381	0.000
9217.221	7.890	7.380	0.000
9219.344	7.890	7.379	0.000
9221.467	7.890	7.378	0.000